# TIME w/ LS370, calibrated against X107797
# Calibration data taken from 20160302 to 20181030
# Constrained by data from 0.238K to 293.1K, extrapolated elsewhere
# Calibration generated 2019-07-23 15:20:32.363949, verified monotonic
# R[Ohms] T[K]
48.310 325
48.381 324
48.453 323
48.527 322
48.601 321
48.677 320
48.753 319
48.831 318
48.909 317
48.989 316
49.070 315
49.151 314
49.234 313
49.318 312
49.402 311
49.488 310
49.575 309
49.663 308
49.752 307
49.841 306
49.932 305
50.024 304
50.117 303
50.211 302
50.306 301
50.402 300
50.499 299
50.597 298
50.696 297
50.797 296
50.898 295
51.000 294
51.033 293
51.148 292
51.256 291
51.371 290
51.486 289
51.603 288
51.719 287
51.835 286
51.955 285
52.075 284
52.194 283
52.310 282
52.433 281
52.556 280
52.675 279
52.797 278
52.920 277
53.045 276
53.171 275
53.299 274
53.423 273
53.549 272
53.677 271
53.803 270
53.934 269
54.066 268
54.198 267
54.331 266
54.463 265
54.599 264
54.735 263
54.869 262
55.008 261
55.145 260
55.282 259
55.421 258
55.533 257
55.626 256
55.748 255
55.896 254
56.041 253
56.188 252
56.333 251
56.478 250
56.634 249
56.783 248
56.928 247
57.078 246
57.226 245
57.386 244
57.546 243
57.703 242
57.862 241
58.011 240
58.181 239
58.353 238
58.492 237
58.649 236
58.820 235
58.987 234
59.143 233
59.310 232
59.476 231
59.644 230
59.820 229
59.985 228
60.157 227
60.339 226
60.515 225
60.689 224
60.864 223
61.035 222
61.218 221
61.407 220
61.588 219
61.756 218
61.937 217
62.134 216
62.321 215
62.509 214
62.702 213
62.887 212
63.080 211
63.276 210
63.474 209
63.670 208
63.857 207
64.039 206
64.209 205
64.391 204
64.597 203
64.802 202
65.005 201
65.203 200
65.409 199
65.635 198
65.848 197
66.053 196
66.274 195
66.494 194
66.708 193
66.938 192
67.166 191
67.384 190
67.608 189
67.845 188
68.084 187
68.319 186
68.551 185
68.791 184
69.025 183
69.264 182
69.512 181
69.763 180
70.005 179
70.251 178
70.496 177
70.743 176
71.013 175
71.273 174
71.529 173
71.791 172
72.050 171
72.319 170
72.584 169
72.854 168
73.132 167
73.408 166
73.691 165
73.968 164
74.244 163
74.533 162
74.817 161
75.105 160
75.403 159
75.708 158
76.003 157
76.295 156
76.605 155
76.912 154
77.211 153
77.518 152
77.836 151
78.167 150
78.490 149
78.801 148
79.129 147
79.463 146
79.802 145
80.150 144
80.483 143
80.810 142
81.158 141
81.523 140
81.888 139
82.253 138
82.621 137
82.980 136
83.364 135
83.749 134
84.097 133
84.480 132
84.876 131
85.268 130
85.660 129
86.061 128
86.464 127
86.868 126
87.266 125
87.679 124
88.107 123
88.532 122
88.958 121
89.407 120
89.853 119
90.291 118
90.752 117
91.214 116
91.665 115
92.118 114
92.589 113
93.073 112
93.550 111
94.037 110
94.537 109
95.044 108
95.558 107
96.065 106
96.583 105
97.117 104
97.653 103
98.202 102
98.766 101
99.333 100
99.909 99
100.495 98
101.083 97
101.669 96
102.272 95
102.888 94
103.515 93
104.144 92
104.785 91
105.432 90
106.075 89
106.746 88
107.431 87
108.108 86
108.792 85
109.520 84
110.267 83
111.032 82
111.810 81
112.552 80
113.316 79
114.128 78
114.935 77
115.776 76
116.595 75
117.430 74
118.318 73
119.212 72
120.123 71
121.051 70
121.235 69.8
121.418 69.6
121.602 69.4
121.798 69.2
121.986 69
122.176 68.8
122.367 68.6
122.556 68.4
122.744 68.2
122.940 68
123.137 67.8
123.335 67.6
123.527 67.4
123.723 67.2
123.920 67
124.120 66.8
124.332 66.6
124.533 66.4
124.734 66.2
124.936 66
125.147 65.8
125.354 65.6
125.546 65.4
125.750 65.2
125.958 65
126.167 64.8
126.370 64.6
126.583 64.4
126.804 64.2
127.026 64
127.233 63.8
127.432 63.6
127.657 63.4
127.874 63.2
128.081 63
128.304 62.8
128.528 62.6
128.748 62.4
128.966 62.2
129.188 62
129.402 61.8
129.648 61.6
129.868 61.4
130.102 61.2
130.332 61
130.556 60.8
130.796 60.6
130.991 60.4
131.209 60.2
131.454 60
131.670 59.8
131.902 59.6
132.139 59.4
132.388 59.2
132.621 59
132.858 58.8
133.121 58.6
133.366 58.4
133.599 58.2
133.834 58
134.080 57.8
134.351 57.6
134.586 57.4
134.807 57.2
135.061 57
135.335 56.8
135.580 56.6
135.809 56.4
136.059 56.2
136.327 56
136.585 55.8
136.835 55.6
137.115 55.4
137.372 55.2
137.636 55
137.915 54.8
138.184 54.6
138.446 54.4
138.706 54.2
138.976 54
139.259 53.8
139.513 53.6
139.782 53.4
140.064 53.2
140.341 53
140.625 52.8
140.907 52.6
141.195 52.4
141.492 52.2
141.807 52
142.097 51.8
142.351 51.6
142.627 51.4
142.913 51.2
143.192 51
143.496 50.8
143.819 50.6
144.105 50.4
144.364 50.2
144.682 50
145.020 49.8
145.287 49.6
145.594 49.4
145.929 49.2
146.242 49
146.542 48.8
146.848 48.6
147.168 48.4
147.498 48.2
147.825 48
148.142 47.8
148.472 47.6
148.765 47.4
149.087 47.2
149.439 47
149.766 46.8
150.061 46.6
150.421 46.4
150.760 46.2
151.107 46
151.443 45.8
151.788 45.6
152.151 45.4
152.455 45.2
152.790 45
153.171 44.8
153.544 44.6
153.913 44.4
154.291 44.2
154.602 44
154.973 43.8
155.350 43.6
155.728 43.4
156.084 43.2
156.433 43
156.816 42.8
157.202 42.6
157.584 42.4
157.957 42.2
158.330 42
158.713 41.8
159.119 41.6
159.497 41.4
159.915 41.2
160.310 41
160.673 40.8
161.108 40.6
161.465 40.4
161.922 40.2
162.346 40
162.769 39.8
163.193 39.6
163.633 39.4
164.078 39.2
164.477 39
164.876 38.8
165.304 38.6
165.739 38.4
166.182 38.2
166.635 38
167.087 37.8
167.536 37.6
168.010 37.4
168.467 37.2
168.934 37
169.410 36.8
169.836 36.6
170.355 36.4
170.830 36.2
171.309 36
171.762 35.8
172.308 35.6
172.790 35.4
173.255 35.2
173.719 35
174.199 34.8
174.661 34.6
175.164 34.4
175.759 34.2
176.293 34
176.826 33.8
177.346 33.6
177.845 33.4
178.386 33.2
178.949 33
179.475 32.8
179.967 32.6
180.526 32.4
181.113 32.2
181.703 32
182.266 31.8
182.819 31.6
183.383 31.4
183.966 31.2
184.597 31
185.110 30.8
185.728 30.6
186.328 30.4
186.920 30.2
187.546 30
187.866 29.9
188.190 29.8
188.528 29.7
188.877 29.6
189.228 29.5
189.537 29.4
189.822 29.3
190.144 29.2
190.473 29.1
190.793 29
191.117 28.9
191.465 28.8
191.813 28.7
192.080 28.6
192.401 28.5
192.733 28.4
193.065 28.3
193.399 28.2
193.734 28.1
194.070 28
194.343 27.9
194.682 27.8
195.102 27.7
195.445 27.6
195.787 27.5
196.133 27.4
196.503 27.3
196.873 27.2
197.223 27.1
197.563 27
197.917 26.9
198.291 26.8
198.665 26.7
198.998 26.6
199.356 26.5
199.763 26.4
200.128 26.3
200.494 26.2
200.873 26.1
201.256 26
201.640 25.9
202.028 25.8
202.408 25.7
202.686 25.6
203.129 25.5
203.546 25.4
203.949 25.3
204.353 25.2
204.757 25.1
205.137 25
205.532 24.9
205.927 24.8
206.274 24.7
206.628 24.6
207.167 24.5
207.580 24.4
207.995 24.3
208.490 24.2
208.935 24.1
209.234 24
209.670 23.9
210.108 23.8
210.552 23.7
210.982 23.6
211.388 23.5
211.815 23.4
212.252 23.3
212.698 23.2
213.129 23.1
213.493 23
214.052 22.9
214.527 22.8
214.951 22.7
215.377 22.6
215.812 22.5
216.336 22.4
216.820 22.3
217.284 22.2
217.744 22.1
218.191 22
218.637 21.9
219.131 21.8
219.631 21.7
220.134 21.6
220.643 21.5
221.152 21.4
221.648 21.3
222.170 21.2
222.698 21.1
223.224 21
223.750 20.9
224.251 20.8
224.747 20.7
225.276 20.6
225.826 20.5
226.376 20.4
226.898 20.3
227.411 20.2
227.983 20.1
228.604 20
229.115 19.9
229.655 19.8
230.215 19.7
230.777 19.6
231.358 19.5
231.939 19.4
232.516 19.3
233.092 19.2
233.671 19.1
234.288 19
234.905 18.9
235.483 18.8
236.041 18.7
236.644 18.6
237.277 18.5
237.909 18.4
238.559 18.3
239.212 18.2
239.936 18.1
240.727 18
241.196 17.9
241.817 17.8
242.470 17.7
243.128 17.6
243.806 17.5
244.485 17.4
245.193 17.3
245.912 17.2
246.648 17.1
247.412 17
248.171 16.9
248.912 16.8
249.646 16.7
250.323 16.6
250.935 16.5
251.560 16.4
252.522 16.3
253.313 16.2
254.100 16.1
254.858 16
255.618 15.9
256.420 15.8
257.219 15.7
258.003 15.6
258.800 15.5
259.644 15.4
260.476 15.3
261.286 15.2
262.118 15.1
262.975 15
263.902 14.9
264.881 14.8
265.721 14.7
266.572 14.6
267.497 14.5
268.436 14.4
269.392 14.3
270.260 14.2
271.133 14.1
272.156 14
273.165 13.9
274.161 13.8
275.136 13.7
276.120 13.6
277.173 13.5
278.179 13.4
279.163 13.3
280.309 13.2
281.390 13.1
282.464 13
283.545 12.9
284.636 12.8
285.805 12.7
287.021 12.6
288.170 12.5
289.249 12.4
290.432 12.3
291.633 12.2
292.876 12.1
294.128 12
295.391 11.9
296.650 11.8
297.908 11.7
299.224 11.6
300.562 11.5
301.919 11.4
303.282 11.3
304.661 11.2
306.042 11.1
307.479 11
308.925 10.9
310.437 10.8
311.970 10.7
313.506 10.6
315.043 10.5
316.639 10.4
318.269 10.3
319.929 10.2
321.611 10.1
323.264 10
325.009 9.9
326.756 9.8
328.578 9.7
330.401 9.6
332.239 9.5
334.084 9.4
336.006 9.3
338.005 9.2
340.010 9.1
342.067 9
344.122 8.9
346.379 8.8
348.615 8.7
350.706 8.6
352.984 8.5
355.291 8.4
357.699 8.3
360.107 8.2
362.576 8.1
365.091 8
365.595 7.98
366.096 7.96
366.607 7.94
367.137 7.92
367.673 7.9
368.207 7.88
368.742 7.86
369.276 7.84
369.811 7.82
370.346 7.8
370.880 7.78
371.415 7.76
371.950 7.74
372.482 7.72
373.021 7.7
373.590 7.68
374.178 7.66
374.765 7.64
375.344 7.62
375.910 7.6
376.472 7.58
377.036 7.56
377.599 7.54
378.163 7.52
378.726 7.5
379.290 7.48
379.850 7.46
380.439 7.44
381.070 7.42
381.709 7.4
382.345 7.38
382.982 7.36
383.618 7.34
384.254 7.32
384.891 7.3
385.527 7.28
386.164 7.26
386.800 7.24
387.436 7.22
388.073 7.2
388.704 7.18
389.324 7.16
389.944 7.14
390.564 7.12
391.185 7.1
391.805 7.08
392.425 7.06
393.045 7.04
393.665 7.02
394.285 7
394.907 6.98
395.522 6.96
396.153 6.94
396.844 6.92
397.569 6.9
398.287 6.88
399.006 6.86
399.725 6.84
400.446 6.82
401.164 6.8
401.850 6.78
402.510 6.76
403.172 6.74
403.835 6.72
404.491 6.7
405.170 6.68
405.927 6.66
406.723 6.64
407.510 6.62
408.298 6.6
409.087 6.58
409.875 6.56
410.664 6.54
411.450 6.52
412.247 6.5
413.013 6.48
413.689 6.46
414.312 6.44
414.972 6.42
415.738 6.4
416.566 6.38
417.382 6.36
418.200 6.34
419.018 6.32
419.836 6.3
420.654 6.28
421.472 6.26
422.292 6.24
423.103 6.22
423.895 6.2
424.684 6.18
425.466 6.16
426.174 6.14
426.835 6.12
427.462 6.1
428.277 6.08
429.438 6.06
430.664 6.04
431.573 6.02
432.346 6
433.243 5.98
434.153 5.96
435.076 5.94
436.009 5.92
436.949 5.9
437.862 5.88
438.789 5.86
439.749 5.84
440.634 5.82
441.520 5.8
442.471 5.78
443.410 5.76
444.351 5.74
445.273 5.72
446.426 5.7
447.589 5.68
448.507 5.66
449.498 5.64
450.093 5.62
450.743 5.6
452.076 5.58
453.366 5.56
454.396 5.54
455.479 5.52
456.572 5.5
457.595 5.48
458.491 5.46
459.306 5.44
460.274 5.42
461.532 5.4
462.871 5.38
464.075 5.36
465.146 5.34
466.231 5.32
467.407 5.3
468.581 5.28
469.775 5.26
470.998 5.24
472.200 5.22
473.389 5.2
474.487 5.18
475.352 5.16
476.603 5.14
478.091 5.12
479.320 5.1
480.590 5.08
481.776 5.06
482.985 5.04
484.271 5.02
485.523 5
486.846 4.98
488.195 4.96
489.450 4.94
490.736 4.92
492.064 4.9
493.396 4.88
494.774 4.86
496.054 4.84
497.280 4.82
498.563 4.8
499.928 4.78
501.460 4.76
503.046 4.74
504.540 4.72
505.944 4.7
507.339 4.68
508.766 4.66
510.202 4.64
511.694 4.62
513.322 4.6
514.907 4.58
516.414 4.56
517.969 4.54
519.545 4.52
521.165 4.5
522.781 4.48
524.361 4.46
525.943 4.44
527.542 4.42
529.109 4.4
530.787 4.38
532.547 4.36
534.332 4.34
535.922 4.32
537.257 4.3
539.096 4.28
541.199 4.26
542.954 4.24
544.711 4.22
546.536 4.2
548.470 4.18
550.194 4.16
552.017 4.14
553.912 4.12
555.464 4.1
557.024 4.08
558.913 4.06
561.123 4.04
563.327 4.02
565.529 4
567.730 3.98
569.931 3.96
572.122 3.94
574.376 3.92
576.271 3.9
577.681 3.88
579.499 3.86
581.783 3.84
584.022 3.82
586.262 3.8
588.503 3.78
590.744 3.76
592.987 3.74
595.214 3.72
597.470 3.7
600.159 3.68
603.214 3.66
606.251 3.64
609.271 3.62
612.009 3.6
614.504 3.58
617.018 3.56
619.531 3.54
622.045 3.52
624.554 3.5
627.069 3.48
629.743 3.46
632.562 3.44
635.378 3.42
638.176 3.4
641.038 3.38
644.033 3.36
647.073 3.34
650.099 3.32
653.134 3.3
656.138 3.28
659.230 3.26
662.629 3.24
666.153 3.22
669.557 3.2
672.927 3.18
676.308 3.16
679.687 3.14
683.065 3.12
686.446 3.1
689.808 3.08
693.133 3.06
695.729 3.04
697.325 3.02
698.665 3
700.099 2.98
701.515 2.96
702.931 2.94
704.491 2.92
705.321 2.9
708.607 2.88
718.110 2.86
730.677 2.84
739.986 2.82
745.613 2.8
750.509 2.78
755.697 2.76
760.831 2.74
765.965 2.72
771.099 2.7
776.233 2.68
781.367 2.66
786.502 2.64
791.632 2.62
796.771 2.6
802.044 2.58
807.431 2.56
812.803 2.54
818.188 2.52
823.677 2.5
829.244 2.48
834.801 2.46
840.359 2.44
845.917 2.42
851.494 2.4
856.928 2.38
863.377 2.36
871.263 2.34
879.370 2.32
887.369 2.3
895.520 2.28
902.521 2.26
907.857 2.24
913.730 2.22
920.832 2.2
928.107 2.18
935.779 2.16
944.106 2.14
952.488 2.12
960.957 2.1
969.705 2.08
978.631 2.06
987.751 2.04
997.084 2.02
1006.513 2
1011.339 1.99
1016.259 1.98
1021.204 1.97
1026.219 1.96
1031.342 1.95
1036.565 1.94
1041.856 1.93
1047.187 1.92
1052.577 1.91
1057.996 1.9
1063.492 1.89
1069.080 1.88
1074.815 1.87
1080.618 1.86
1086.497 1.85
1092.454 1.84
1098.377 1.83
1104.311 1.82
1110.316 1.81
1116.594 1.8
1122.965 1.79
1129.437 1.78
1135.944 1.77
1142.450 1.76
1149.173 1.75
1155.975 1.74
1162.956 1.73
1169.998 1.72
1177.045 1.71
1184.135 1.7
1191.423 1.69
1199.020 1.68
1206.604 1.67
1214.141 1.66
1221.707 1.65
1229.423 1.64
1237.366 1.63
1245.660 1.62
1254.304 1.61
1262.756 1.6
1271.362 1.59
1280.177 1.58
1288.980 1.57
1297.785 1.56
1306.723 1.55
1315.876 1.54
1325.056 1.53
1334.859 1.52
1345.055 1.51
1355.030 1.5
1365.019 1.49
1375.029 1.48
1385.213 1.47
1395.689 1.46
1406.597 1.45
1417.979 1.44
1429.283 1.43
1440.681 1.42
1452.278 1.41
1464.149 1.4
1476.294 1.39
1488.830 1.38
1501.739 1.37
1514.645 1.36
1527.626 1.35
1541.096 1.34
1554.875 1.33
1568.886 1.32
1583.298 1.31
1598.038 1.3
1612.956 1.29
1628.014 1.28
1643.417 1.27
1659.235 1.26
1675.455 1.25
1692.206 1.24
1709.378 1.23
1726.954 1.22
1744.818 1.21
1763.125 1.2
1782.132 1.19
1801.533 1.18
1820.973 1.17
1840.645 1.16
1860.978 1.15
1881.919 1.14
1903.568 1.13
1926.358 1.12
1949.505 1.11
1972.980 1.1
1997.448 1.09
2022.558 1.08
2047.504 1.07
2072.849 1.06
2098.881 1.05
2125.648 1.04
2154.099 1.03
2183.899 1.02
2213.972 1.01
2244.217 1
2275.251 0.99
2307.237 0.98
2340.479 0.97
2375.519 0.96
2411.580 0.95
2448.492 0.94
2486.876 0.93
2526.502 0.92
2567.010 0.91
2608.944 0.9
2652.602 0.89
2698.033 0.88
2745.064 0.87
2793.886 0.86
2844.509 0.85
2896.005 0.84
2949.688 0.83
3005.654 0.82
3063.946 0.81
3124.718 0.8
3130.945 0.799
3137.190 0.798
3143.460 0.797
3149.744 0.796
3156.063 0.795
3162.413 0.794
3168.787 0.793
3175.179 0.792
3181.606 0.791
3188.059 0.79
3194.533 0.789
3201.026 0.788
3207.561 0.787
3214.125 0.786
3220.718 0.785
3227.340 0.784
3233.984 0.783
3240.652 0.782
3247.338 0.781
3254.035 0.78
3260.759 0.779
3267.508 0.778
3274.274 0.777
3281.069 0.776
3287.878 0.775
3294.697 0.774
3301.534 0.773
3308.396 0.772
3315.279 0.771
3322.204 0.77
3329.174 0.769
3336.155 0.768
3343.176 0.767
3350.253 0.766
3357.370 0.765
3364.532 0.764
3371.719 0.763
3378.934 0.762
3386.192 0.761
3393.488 0.76
3400.814 0.759
3408.168 0.758
3415.554 0.757
3422.970 0.756
3430.413 0.755
3437.897 0.754
3445.401 0.753
3452.936 0.752
3460.506 0.751
3468.110 0.75
3475.742 0.749
3483.402 0.748
3491.087 0.747
3498.800 0.746
3506.559 0.745
3514.376 0.744
3522.230 0.743
3530.100 0.742
3538.001 0.741
3545.947 0.74
3553.932 0.739
3561.961 0.738
3569.997 0.737
3578.076 0.736
3586.194 0.735
3594.337 0.734
3602.501 0.733
3610.727 0.732
3618.991 0.731
3627.271 0.73
3635.597 0.729
3643.953 0.728
3652.363 0.727
3660.808 0.726
3669.275 0.725
3677.786 0.724
3686.328 0.723
3694.901 0.722
3703.513 0.721
3712.178 0.72
3720.886 0.719
3729.626 0.718
3738.408 0.717
3747.234 0.716
3756.099 0.715
3765.033 0.714
3774.006 0.713
3783.006 0.712
3792.039 0.711
3801.119 0.71
3810.259 0.709
3819.430 0.708
3828.633 0.707
3837.898 0.706
3847.225 0.705
3856.604 0.704
3866.036 0.703
3875.486 0.702
3884.967 0.701
3894.511 0.7
3904.110 0.699
3913.736 0.698
3923.404 0.697
3933.119 0.696
3942.892 0.695
3952.721 0.694
3962.602 0.693
3972.540 0.692
3982.533 0.691
3992.546 0.69
4002.612 0.689
4012.736 0.688
4022.924 0.687
4033.151 0.686
4043.411 0.685
4053.724 0.684
4064.087 0.683
4074.503 0.682
4084.961 0.681
4095.465 0.68
4106.033 0.679
4116.651 0.678
4127.329 0.677
4138.055 0.676
4148.813 0.675
4159.630 0.674
4170.497 0.673
4181.427 0.672
4192.423 0.671
4203.480 0.67
4214.629 0.669
4225.800 0.668
4236.982 0.667
4248.227 0.666
4259.530 0.665
4270.892 0.664
4282.302 0.663
4293.772 0.662
4305.303 0.661
4316.942 0.66
4328.747 0.659
4340.688 0.658
4352.571 0.657
4364.222 0.656
4375.958 0.655
4387.783 0.654
4399.679 0.653
4411.667 0.652
4423.730 0.651
4435.882 0.65
4448.129 0.649
4460.467 0.648
4472.897 0.647
4485.428 0.646
4497.933 0.645
4510.412 0.644
4522.938 0.643
4535.708 0.642
4548.690 0.641
4561.843 0.64
4575.103 0.639
4588.396 0.638
4601.732 0.637
4615.147 0.636
4628.614 0.635
4642.116 0.634
4655.653 0.633
4669.256 0.632
4682.919 0.631
4696.643 0.63
4710.483 0.629
4724.413 0.628
4738.327 0.627
4752.215 0.626
4766.138 0.625
4780.138 0.624
4794.228 0.623
4808.415 0.622
4822.734 0.621
4836.844 0.62
4849.049 0.619
4863.438 0.618
4878.884 0.617
4894.311 0.616
4909.712 0.615
4925.092 0.614
4940.454 0.613
4953.965 0.612
4962.381 0.611
4976.470 0.61
4995.367 0.609
5013.840 0.608
5031.924 0.607
5049.628 0.606
5067.043 0.605
5084.245 0.604
5101.229 0.603
5117.946 0.602
5134.433 0.601
5150.762 0.6
5166.925 0.599
5182.921 0.598
5198.800 0.597
5214.174 0.596
5229.872 0.595
5245.680 0.594
5261.379 0.593
5277.055 0.592
5292.719 0.591
5308.385 0.59
5324.082 0.589
5339.810 0.588
5355.569 0.587
5371.385 0.586
5387.268 0.585
5403.249 0.584
5415.821 0.583
5424.095 0.582
5436.087 0.581
5457.583 0.58
5478.729 0.579
5499.535 0.578
5520.026 0.577
5540.197 0.576
5560.086 0.575
5579.658 0.574
5598.998 0.573
5618.196 0.572
5637.264 0.571
5656.216 0.57
5675.084 0.569
5693.821 0.568
5712.506 0.567
5731.218 0.566
5749.932 0.565
5768.654 0.564
5787.383 0.563
5806.211 0.562
5825.241 0.561
5844.463 0.56
5863.772 0.559
5883.077 0.558
5902.358 0.557
5921.819 0.556
5941.726 0.555
5961.807 0.554
5981.999 0.553
6002.636 0.552
6023.531 0.551
6044.702 0.55
6066.132 0.549
6087.781 0.548
6109.669 0.547
6131.894 0.546
6154.373 0.545
6177.252 0.544
6200.595 0.543
6224.406 0.542
6248.506 0.541
6272.865 0.54
6297.448 0.539
6322.261 0.538
6347.343 0.537
6372.693 0.536
6398.319 0.535
6424.202 0.534
6450.288 0.533
6476.576 0.532
6503.033 0.531
6529.757 0.53
6556.758 0.529
6583.793 0.528
6610.796 0.527
6638.084 0.526
6665.632 0.525
6693.258 0.524
6720.943 0.523
6748.652 0.522
6776.337 0.521
6803.928 0.52
6831.817 0.519
6862.387 0.518
6891.706 0.517
6919.998 0.516
6948.144 0.515
6976.361 0.514
7004.553 0.513
7032.650 0.512
7063.019 0.511
7101.249 0.51
7137.228 0.509
7169.394 0.508
7201.721 0.507
7234.176 0.506
7266.724 0.505
7299.467 0.504
7332.406 0.503
7365.434 0.502
7395.549 0.501
7426.394 0.5
7460.174 0.499
7495.279 0.498
7530.159 0.497
7564.817 0.496
7599.773 0.495
7634.264 0.494
7668.416 0.493
7702.363 0.492
7736.013 0.491
7769.381 0.49
7802.458 0.489
7835.207 0.488
7867.596 0.487
7899.649 0.486
7931.309 0.485
7962.556 0.484
7993.408 0.483
8028.414 0.482
8071.328 0.481
8115.279 0.48
8150.463 0.479
8186.444 0.478
8224.201 0.477
8262.856 0.476
8301.649 0.475
8340.592 0.474
8379.861 0.473
8419.110 0.472
8457.567 0.471
8496.899 0.47
8537.480 0.469
8578.270 0.468
8619.279 0.467
8660.521 0.466
8702.042 0.465
8743.857 0.464
8785.979 0.463
8828.476 0.462
8871.333 0.461
8914.480 0.46
8957.939 0.459
9001.789 0.458
9046.029 0.457
9090.656 0.456
9135.667 0.455
9181.083 0.454
9227.020 0.453
9273.597 0.452
9320.465 0.451
9367.804 0.45
9415.437 0.449
9471.513 0.448
9523.183 0.447
9569.363 0.446
9616.410 0.445
9664.305 0.444
9712.744 0.443
9762.526 0.442
9813.181 0.441
9864.672 0.44
9916.974 0.439
9970.103 0.438
10024.063 0.437
10078.843 0.436
10134.403 0.435
10190.719 0.434
10247.837 0.433
10305.777 0.432
10372.940 0.431
10441.601 0.43
10496.514 0.429
10552.684 0.428
10610.253 0.427
10669.255 0.426
10729.428 0.425
10795.730 0.424
10864.128 0.423
10924.121 0.422
10985.667 0.421
11048.934 0.42
11112.711 0.419
11177.774 0.418
11245.340 0.417
11314.016 0.416
11384.001 0.415
11455.005 0.414
11526.886 0.413
11600.050 0.412
11674.125 0.411
11748.841 0.41
11824.304 0.409
11900.496 0.408
11977.643 0.407
12055.443 0.406
12133.712 0.405
12212.821 0.404
12292.716 0.403
12372.966 0.402
12453.713 0.401
12539.155 0.4
12626.241 0.399
12712.454 0.398
12798.280 0.397
12884.459 0.396
12971.496 0.395
13059.444 0.394
13147.982 0.393
13237.124 0.392
13326.843 0.391
13417.467 0.39
13509.014 0.389
13601.307 0.388
13694.284 0.387
13787.779 0.386
13881.890 0.385
13976.825 0.384
14072.303 0.383
14168.553 0.382
14265.558 0.381
14363.370 0.38
14462.253 0.379
14564.016 0.378
14667.125 0.377
14770.306 0.376
14873.929 0.375
14979.060 0.374
15085.028 0.373
15191.315 0.372
15299.052 0.371
15409.376 0.37
15520.909 0.369
15633.026 0.368
15746.514 0.367
15864.326 0.366
15983.175 0.365
16099.459 0.364
16217.511 0.363
16337.261 0.362
16459.076 0.361
16582.692 0.36
16708.126 0.359
16835.641 0.358
16965.298 0.357
17098.479 0.356
17235.059 0.355
17370.385 0.354
17508.060 0.353
17647.677 0.352
17790.040 0.351
17934.579 0.35
18082.152 0.349
18233.496 0.348
18377.837 0.347
18525.748 0.346
18680.346 0.345
18837.652 0.344
18997.937 0.343
19161.493 0.342
19327.159 0.341
19496.818 0.34
19668.992 0.339
19843.578 0.338
20020.755 0.337
20200.893 0.336
20384.713 0.335
20572.129 0.334
20762.992 0.333
20957.300 0.332
21155.749 0.331
21347.189 0.33
21535.336 0.329
21737.820 0.328
21943.181 0.327
22152.283 0.326
22365.093 0.325
22581.395 0.324
22794.721 0.323
23006.878 0.322
23229.711 0.321
23455.046 0.32
23684.001 0.319
23917.985 0.318
24156.014 0.317
24396.749 0.316
24641.717 0.315
24890.489 0.314
25143.141 0.313
25400.497 0.312
25660.990 0.311
25925.364 0.31
26194.482 0.309
26468.066 0.308
26746.783 0.307
27030.308 0.306
27317.146 0.305
27608.223 0.304
27905.278 0.303
28207.250 0.302
28513.838 0.301
28827.134 0.3
29146.617 0.299
29470.865 0.298
29799.662 0.297
30133.955 0.296
30474.067 0.295
30820.193 0.294
31174.194 0.293
31534.027 0.292
31899.725 0.291
32272.583 0.29
32653.409 0.289
33041.447 0.288
33427.313 0.287
33821.354 0.286
34224.020 0.285
34635.487 0.284
35055.799 0.283
35485.507 0.282
35924.620 0.281
36373.437 0.28
36832.123 0.279
37300.946 0.278
37780.213 0.277
38270.145 0.276
38770.925 0.275
39282.765 0.274
39805.280 0.273
40339.268 0.272
40885.617 0.271
41444.003 0.27
42014.718 0.269
42598.011 0.268
43194.065 0.267
43803.174 0.266
44421.765 0.265
45052.374 0.264
45699.779 0.263
46360.960 0.262
47036.301 0.261
47725.710 0.26
48429.712 0.259
49148.661 0.258
49882.638 0.257
50631.832 0.256
51394.716 0.255
52170.787 0.254
52965.379 0.253
53776.089 0.252
54603.773 0.251
55448.092 0.25
56310.132 0.249
57189.506 0.248
58085.863 0.247
58999.399 0.246
59931.038 0.245
60881.780 0.244
61851.245 0.243
62839.528 0.242
63847.049 0.241
64874.638 0.24
65920.926 0.239
66987.535 0.238
68075.230 0.237
69184.563 0.236
70315.886 0.235
71469.001 0.234
72644.418 0.233
73842.807 0.232
75064.732 0.231
76309.982 0.23
77578.946 0.229
78872.465 0.228
80191.360 0.227
81536.433 0.226
82907.455 0.225
84304.444 0.224
85728.883 0.223
87181.360 0.222
88662.476 0.221
90172.844 0.22
91713.091 0.219
93283.856 0.218
94885.793 0.217
96519.567 0.216
98185.855 0.215
99885.349 0.214
101618.752 0.213
103386.782 0.212
105190.168 0.211
107029.654 0.21
108905.993 0.209
110819.956 0.208
112772.322 0.207
114763.887 0.206
116795.457 0.205
118867.852 0.204
120981.904 0.203
123138.460 0.202
125338.379 0.201
127582.530 0.2
129871.800 0.199
132207.084 0.198
134589.294 0.197
137019.351 0.196
139498.192 0.195
142026.766 0.194
144606.033 0.193
147236.969 0.192
149920.562 0.191
152657.810 0.19
155449.727 0.189
158297.340 0.188
161201.687 0.187
164163.819 0.186
167184.802 0.185
170265.714 0.184
173407.643 0.183
176611.694 0.182
179878.983 0.181
183210.639 0.18
186607.804 0.179
190071.632 0.178
193603.292 0.177
197203.963 0.176
200874.840 0.175
