# TIME w/ LS370, calibrated against X107797
# Calibration data taken from 20160302 to 20181030
# Constrained by data from 0.208K to 292.1K, extrapolated elsewhere
# Calibration generated 2019-07-23 17:45:46.226615, verified monotonic
# R[Ohms] T[K]
2012.665 290
2013.219 285
2013.646 280
2014.247 275
2014.691 270
2015.286 265
2016.107 260
2016.905 255
2017.729 250
2018.793 245
2019.767 240
2020.674 235
2021.873 230
2022.881 225
2024.619 220
2026.258 215
2027.329 210
2029.010 205
2030.998 200
2032.934 195
2034.298 190
2035.959 185
2038.482 180
2040.705 175
2042.881 170
2045.577 165
2048.150 160
2051.230 155
2054.339 150
2057.265 145
2060.884 140
2064.625 135
2068.228 130
2072.078 125
2076.296 120
2080.741 115
2085.464 110
2090.423 105
2095.749 100
2101.977 95
2108.022 90
2114.694 85
2122.789 80
2130.931 75
2140.089 70
2142.192 69
2144.125 68
2145.650 67
2147.719 66
2150.087 65
2151.767 64
2153.628 63
2156.545 62
2159.432 61
2161.380 60
2163.744 59
2166.232 58
2168.397 57
2171.189 56
2173.853 55
2176.289 54
2179.361 53
2182.700 52
2185.672 51
2188.587 50
2191.895 49
2195.807 48
2198.844 47
2201.898 46
2205.479 45
2209.225 44
2213.634 43
2217.520 42
2221.800 41
2225.944 40
2229.902 39
2234.962 38
2240.096 37
2244.583 36
2248.686 35
2254.342 34
2260.491 33
2265.953 32
2272.309 31
2278.249 30
2281.638 29.5
2284.966 29
2288.727 28.5
2293.200 28
2297.257 27.5
2300.749 27
2304.163 26.5
2307.970 26
2311.398 25.5
2315.743 25
2321.228 24.5
2324.371 24
2328.063 23.5
2333.517 23
2338.980 22.5
2343.139 22
2348.679 21.5
2354.994 21
2359.696 20.5
2365.649 20
2371.371 19.5
2377.454 19
2383.865 18.5
2390.654 18
2397.882 17.5
2404.886 17
2412.016 16.5
2420.167 16
2429.290 15.5
2436.774 15
2444.454 14.5
2453.663 14
2463.698 13.5
2474.852 13
2485.729 12.5
2496.629 12
2508.950 11.5
2522.175 11
2536.112 10.5
2550.399 10
2566.765 9.5
2584.708 9
2603.568 8.5
2622.500 8
2626.269 7.9
2631.659 7.8
2637.380 7.7
2643.113 7.6
2647.688 7.5
2651.971 7.4
2656.254 7.3
2660.537 7.2
2664.821 7.1
2669.086 7
2675.177 6.9
2681.744 6.8
2688.316 6.7
2694.344 6.6
2700.211 6.5
2706.078 6.4
2711.945 6.3
2717.811 6.2
2723.678 6.1
2730.809 6
2740.854 5.9
2747.946 5.8
2755.027 5.7
2762.109 5.6
2769.190 5.5
2776.294 5.4
2784.414 5.3
2792.578 5.2
2800.741 5.1
2809.173 5
2818.068 4.9
2826.965 4.8
2836.570 4.7
2847.575 4.6
2857.921 4.5
2868.426 4.4
2881.531 4.3
2892.833 4.2
2904.021 4.1
2917.685 4
2931.111 3.9
2944.909 3.8
2958.294 3.7
2973.797 3.6
2989.962 3.5
3007.106 3.4
3025.071 3.3
3043.697 3.2
3064.074 3.1
3085.384 3
3107.348 2.9
3131.248 2.8
3157.853 2.7
3184.155 2.6
3211.723 2.5
3243.764 2.4
3276.767 2.3
3312.976 2.2
3348.274 2.1
3393.934 2
3399.264 1.99
3404.594 1.98
3409.925 1.97
3415.255 1.96
3420.585 1.95
3425.915 1.94
3431.246 1.93
3436.576 1.92
3441.906 1.91
3447.237 1.9
3452.567 1.89
3457.897 1.88
3463.228 1.87
3468.558 1.86
3473.888 1.85
3479.219 1.84
3484.549 1.83
3489.879 1.82
3495.210 1.81
3500.540 1.8
3505.870 1.79
3511.201 1.78
3516.531 1.77
3521.861 1.76
3527.191 1.75
3532.522 1.74
3537.852 1.73
3543.197 1.72
3548.506 1.71
3553.797 1.7
3559.155 1.69
3564.636 1.68
3570.413 1.67
3576.190 1.66
3581.882 1.65
3587.677 1.64
3593.667 1.63
3599.938 1.62
3606.536 1.61
3613.454 1.6
3620.317 1.59
3627.185 1.58
3634.166 1.57
3641.059 1.56
3648.024 1.55
3655.148 1.54
3662.506 1.53
3669.881 1.52
3677.310 1.51
3684.669 1.5
3692.161 1.49
3699.921 1.48
3707.802 1.47
3715.810 1.46
3723.812 1.45
3731.785 1.44
3739.868 1.43
3748.126 1.42
3756.552 1.41
3765.079 1.4
3773.728 1.39
3782.500 1.38
3791.449 1.37
3800.623 1.36
3809.902 1.35
3819.104 1.34
3828.295 1.33
3837.723 1.32
3847.380 1.31
3857.354 1.3
3867.603 1.29
3878.060 1.28
3888.434 1.27
3898.863 1.26
3909.349 1.25
3919.736 1.24
3930.373 1.23
3941.251 1.22
3952.521 1.21
3964.047 1.2
3975.785 1.19
3987.814 1.18
4000.071 1.17
4012.379 1.16
4024.489 1.15
4036.813 1.14
4049.476 1.13
4062.595 1.12
4076.264 1.11
4090.240 1.1
4104.067 1.09
4117.920 1.08
4131.924 1.07
4146.257 1.06
4160.993 1.05
4175.673 1.04
4190.603 1.03
4205.931 1.02
4221.894 1.01
4238.428 1
4255.341 0.99
4272.219 0.98
4288.740 0.97
4305.833 0.96
4323.567 0.95
4341.728 0.94
4360.270 0.93
4379.226 0.92
4398.431 0.91
4418.051 0.9
4438.219 0.89
4458.766 0.88
4479.720 0.87
4501.083 0.86
4522.943 0.85
4545.496 0.84
4568.631 0.83
4592.500 0.82
4616.866 0.81
4641.522 0.8
4644.006 0.799
4646.498 0.798
4648.982 0.797
4651.455 0.796
4653.939 0.795
4656.441 0.794
4658.943 0.793
4661.448 0.792
4663.979 0.791
4666.474 0.79
4668.971 0.789
4671.471 0.788
4674.004 0.787
4676.540 0.786
4679.066 0.785
4681.607 0.784
4684.185 0.783
4686.757 0.782
4689.329 0.781
4691.923 0.78
4694.527 0.779
4697.147 0.778
4699.766 0.777
4702.420 0.776
4705.087 0.775
4707.758 0.774
4710.452 0.773
4713.147 0.772
4715.850 0.771
4718.578 0.77
4721.304 0.769
4724.022 0.768
4726.752 0.767
4729.473 0.766
4732.218 0.765
4734.982 0.764
4737.754 0.763
4740.534 0.762
4743.312 0.761
4746.085 0.76
4748.859 0.759
4751.630 0.758
4754.423 0.757
4757.236 0.756
4760.034 0.755
4762.838 0.754
4765.657 0.753
4768.490 0.752
4771.342 0.751
4774.214 0.75
4777.107 0.749
4779.993 0.748
4782.871 0.747
4785.769 0.746
4788.654 0.745
4791.530 0.744
4794.420 0.743
4797.313 0.742
4800.213 0.741
4803.138 0.74
4806.061 0.739
4808.962 0.738
4811.858 0.737
4814.780 0.736
4817.704 0.735
4820.647 0.734
4823.581 0.733
4826.520 0.732
4829.449 0.731
4832.402 0.73
4835.359 0.729
4838.294 0.728
4841.255 0.727
4844.233 0.726
4847.232 0.725
4850.260 0.724
4853.314 0.723
4856.362 0.722
4859.388 0.721
4862.403 0.72
4865.418 0.719
4868.421 0.718
4871.439 0.717
4874.531 0.716
4877.675 0.715
4880.770 0.714
4883.875 0.713
4886.986 0.712
4890.131 0.711
4893.278 0.71
4896.415 0.709
4899.566 0.708
4902.734 0.707
4905.886 0.706
4909.065 0.705
4912.264 0.704
4915.469 0.703
4918.688 0.702
4921.924 0.701
4925.157 0.7
4928.415 0.699
4931.663 0.698
4934.919 0.697
4938.202 0.696
4941.503 0.695
4944.813 0.694
4948.121 0.693
4951.409 0.692
4954.714 0.691
4958.007 0.69
4961.343 0.689
4964.697 0.688
4968.056 0.687
4971.393 0.686
4974.759 0.685
4978.161 0.684
4981.552 0.683
4984.908 0.682
4988.298 0.681
4991.724 0.68
4995.161 0.679
4998.617 0.678
5002.103 0.677
5005.615 0.676
5009.098 0.675
5012.595 0.674
5016.108 0.673
5019.572 0.672
5023.056 0.671
5026.574 0.67
5030.081 0.669
5033.582 0.668
5037.086 0.667
5040.614 0.666
5044.184 0.665
5047.758 0.664
5051.343 0.663
5054.911 0.662
5058.472 0.661
5062.047 0.66
5065.633 0.659
5069.247 0.658
5072.902 0.657
5076.570 0.656
5080.247 0.655
5083.955 0.654
5087.663 0.653
5091.343 0.652
5095.026 0.651
5098.728 0.65
5102.435 0.649
5106.146 0.648
5109.862 0.647
5113.592 0.646
5117.320 0.645
5121.048 0.644
5124.809 0.643
5128.596 0.642
5132.396 0.641
5136.209 0.64
5140.055 0.639
5143.939 0.638
5147.829 0.637
5151.717 0.636
5155.614 0.635
5159.514 0.634
5163.399 0.633
5167.273 0.632
5171.162 0.631
5175.119 0.63
5179.078 0.629
5183.090 0.628
5187.178 0.627
5191.233 0.626
5195.265 0.625
5199.345 0.624
5203.364 0.623
5207.398 0.622
5211.483 0.621
5215.543 0.62
5219.612 0.619
5223.759 0.618
5227.929 0.617
5232.143 0.616
5236.354 0.615
5240.573 0.614
5244.768 0.613
5248.995 0.612
5253.237 0.611
5257.501 0.61
5261.795 0.609
5266.113 0.608
5270.447 0.607
5274.719 0.606
5279.018 0.605
5283.325 0.604
5287.629 0.603
5291.945 0.602
5296.268 0.601
5300.632 0.6
5305.034 0.599
5308.771 0.598
5313.086 0.597
5317.760 0.596
5322.431 0.595
5327.062 0.594
5331.681 0.593
5336.320 0.592
5340.977 0.591
5345.597 0.59
5350.154 0.589
5354.744 0.588
5359.379 0.587
5364.046 0.586
5368.729 0.585
5373.281 0.584
5377.805 0.583
5382.419 0.582
5387.064 0.581
5391.725 0.58
5396.444 0.579
5401.142 0.578
5405.388 0.577
5409.805 0.576
5414.641 0.575
5419.382 0.574
5424.138 0.573
5428.975 0.572
5433.821 0.571
5438.532 0.57
5443.246 0.569
5448.007 0.568
5452.835 0.567
5457.623 0.566
5462.390 0.565
5467.016 0.564
5471.757 0.563
5476.587 0.562
5481.395 0.561
5486.197 0.56
5491.038 0.559
5495.945 0.558
5500.869 0.557
5505.822 0.556
5510.781 0.555
5515.804 0.554
5520.881 0.553
5525.834 0.552
5530.814 0.551
5535.834 0.55
5540.843 0.549
5545.949 0.548
5551.062 0.547
5556.196 0.546
5561.336 0.545
5566.510 0.544
5571.756 0.543
5577.051 0.542
5582.362 0.541
5587.649 0.54
5593.010 0.539
5598.465 0.538
5603.876 0.537
5609.304 0.536
5614.788 0.535
5620.294 0.534
5625.826 0.533
5631.454 0.532
5637.087 0.531
5642.776 0.53
5648.512 0.529
5654.297 0.528
5660.057 0.527
5666.235 0.526
5672.885 0.525
5678.359 0.524
5683.837 0.523
5689.457 0.522
5695.099 0.521
5700.743 0.52
5706.861 0.519
5712.985 0.518
5718.724 0.517
5724.537 0.516
5730.390 0.515
5736.302 0.514
5742.281 0.513
5748.357 0.512
5754.453 0.511
5760.578 0.51
5766.757 0.509
5772.964 0.508
5779.162 0.507
5785.396 0.506
5791.686 0.505
5797.981 0.504
5804.317 0.503
5810.681 0.502
5817.013 0.501
5823.369 0.5
5829.752 0.499
5836.121 0.498
5843.368 0.497
5850.328 0.496
5856.992 0.495
5863.717 0.494
5870.503 0.493
5877.324 0.492
5884.106 0.491
5890.883 0.49
5897.706 0.489
5904.627 0.488
5911.523 0.487
5918.371 0.486
5925.178 0.485
5931.966 0.484
5938.857 0.483
5945.695 0.482
5952.524 0.481
5959.458 0.48
5966.356 0.479
5973.153 0.478
5979.905 0.477
5987.197 0.476
5994.567 0.475
6001.569 0.474
6008.655 0.473
6015.763 0.472
6022.759 0.471
6029.723 0.47
6036.797 0.469
6043.927 0.468
6051.036 0.467
6058.014 0.466
6065.035 0.465
6072.039 0.464
6079.219 0.463
6086.407 0.462
6093.521 0.461
6100.642 0.46
6107.813 0.459
6115.005 0.458
6122.224 0.457
6129.534 0.456
6136.914 0.455
6144.338 0.454
6151.677 0.453
6158.938 0.452
6166.363 0.451
6173.860 0.45
6181.375 0.449
6188.996 0.448
6196.573 0.447
6204.161 0.446
6211.839 0.445
6219.628 0.444
6227.433 0.443
6235.285 0.442
6243.225 0.441
6251.284 0.44
6259.462 0.439
6267.660 0.438
6275.884 0.437
6284.198 0.436
6292.624 0.435
6301.140 0.434
6309.669 0.433
6318.284 0.432
6326.967 0.431
6335.787 0.43
6344.758 0.429
6353.831 0.428
6362.939 0.427
6372.152 0.426
6380.968 0.425
6389.049 0.424
6398.090 0.423
6407.172 0.422
6416.280 0.421
6425.518 0.42
6434.868 0.419
6443.842 0.418
6452.769 0.417
6462.087 0.416
6471.454 0.415
6480.808 0.414
6490.169 0.413
6499.549 0.412
6508.973 0.411
6518.524 0.41
6528.103 0.409
6537.695 0.408
6547.385 0.407
6557.117 0.406
6566.806 0.405
6576.548 0.404
6586.324 0.403
6596.174 0.402
6606.038 0.401
6616.004 0.4
6626.053 0.399
6636.091 0.398
6646.225 0.397
6656.404 0.396
6666.637 0.395
6676.980 0.394
6687.318 0.393
6697.678 0.392
6708.096 0.391
6718.567 0.39
6729.054 0.389
6739.602 0.388
6750.232 0.387
6760.993 0.386
6771.834 0.385
6782.695 0.384
6793.555 0.383
6804.493 0.382
6815.632 0.381
6826.837 0.38
6838.057 0.379
6849.362 0.378
6860.727 0.377
6872.170 0.376
6883.639 0.375
6895.135 0.374
6906.747 0.373
6918.390 0.372
6930.088 0.371
6941.889 0.37
6953.745 0.369
6965.704 0.368
6977.702 0.367
6989.707 0.366
7001.835 0.365
7014.041 0.364
7026.396 0.363
7038.846 0.362
7051.292 0.361
7063.783 0.36
7076.353 0.359
7089.012 0.358
7101.789 0.357
7114.688 0.356
7127.621 0.355
7140.564 0.354
7153.561 0.353
7166.708 0.352
7179.930 0.351
7193.171 0.35
7206.525 0.349
7219.956 0.348
7233.419 0.347
7247.004 0.346
7260.722 0.345
7274.477 0.344
7288.297 0.343
7302.318 0.342
7316.526 0.341
7330.779 0.34
7344.922 0.339
7359.148 0.338
7373.531 0.337
7387.866 0.336
7402.276 0.335
7416.747 0.334
7431.276 0.333
7445.998 0.332
7460.889 0.331
7475.886 0.33
7491.015 0.329
7506.210 0.328
7521.499 0.327
7536.968 0.326
7552.587 0.325
7568.296 0.324
7584.060 0.323
7599.945 0.322
7615.990 0.321
7632.191 0.32
7648.515 0.319
7664.970 0.318
7681.539 0.317
7698.227 0.316
7715.007 0.315
7731.879 0.314
7748.909 0.313
7766.077 0.312
7783.379 0.311
7800.809 0.31
7818.319 0.309
7836.007 0.308
7853.831 0.307
7871.702 0.306
7889.703 0.305
7907.861 0.304
7926.183 0.303
7944.614 0.302
7963.078 0.301
7981.738 0.3
8000.623 0.299
8019.663 0.298
8038.829 0.297
8058.073 0.296
8077.459 0.295
8096.959 0.294
8116.583 0.293
8136.348 0.292
8156.282 0.291
8176.374 0.29
8196.603 0.289
8217.074 0.288
8237.775 0.287
8258.599 0.286
8279.476 0.285
8300.484 0.284
8321.679 0.283
8343.093 0.282
8364.642 0.281
8386.297 0.28
8408.124 0.279
8430.042 0.278
8452.070 0.277
8474.279 0.276
8496.669 0.275
8519.325 0.274
8542.207 0.273
8565.270 0.272
8588.595 0.271
8612.117 0.27
8635.795 0.269
8659.743 0.268
8683.948 0.267
8708.352 0.266
8732.997 0.265
8757.846 0.264
8782.894 0.263
8808.115 0.262
8833.564 0.261
8859.194 0.26
8885.015 0.259
8911.106 0.258
8937.262 0.257
8963.655 0.256
8990.250 0.255
9017.095 0.254
9044.200 0.253
9071.564 0.252
9099.137 0.251
9126.970 0.25
9155.100 0.249
9183.443 0.248
9212.065 0.247
9240.981 0.246
9270.147 0.245
9299.584 0.244
9329.320 0.243
9359.321 0.242
9389.535 0.241
9419.893 0.24
9450.450 0.239
9481.357 0.238
9512.505 0.237
9543.846 0.236
9575.524 0.235
9607.516 0.234
9639.808 0.233
9672.394 0.232
9705.251 0.231
9738.377 0.23
9771.784 0.229
9805.488 0.228
9839.500 0.227
9873.793 0.226
9908.379 0.225
9943.252 0.224
9978.427 0.223
10013.905 0.222
10049.689 0.221
10085.783 0.22
10122.187 0.219
10158.905 0.218
10195.939 0.217
10233.292 0.216
10270.965 0.215
10308.962 0.214
10347.285 0.213
10385.936 0.212
10424.918 0.211
10464.233 0.21
10503.884 0.209
10543.873 0.208
10584.202 0.207
10624.874 0.206
10665.892 0.205
10707.258 0.204
10748.974 0.203
10791.043 0.202
10833.468 0.201
10876.250 0.2
10919.392 0.199
10962.897 0.198
11006.767 0.197
11051.005 0.196
11095.613 0.195
11140.594 0.194
11185.949 0.193
11231.682 0.192
11277.795 0.191
11324.291 0.19
11371.171 0.189
11418.439 0.188
11466.097 0.187
11514.147 0.186
11562.592 0.185
11611.434 0.184
11660.676 0.183
11710.320 0.182
11760.369 0.181
11810.825 0.18
11861.691 0.179
11912.970 0.178
11964.663 0.177
12016.773 0.176
12069.303 0.175
