# TIME w/ LS370, calibrated against X107797
# Calibration data taken from 20160302 to 20181030
# Constrained by data from 0.216K to 293.6K, extrapolated elsewhere
# Calibration generated 2019-07-23 15:16:08.006674, verified monotonic
# R[Ohms] T[K]
25.397 325
25.426 324
25.455 323
25.485 322
25.515 321
25.546 320
25.577 319
25.608 318
25.640 317
25.672 316
25.705 315
25.738 314
25.771 313
25.805 312
25.840 311
25.874 310
25.909 309
25.945 308
25.981 307
26.017 306
26.054 305
26.091 304
26.128 303
26.166 302
26.204 301
26.243 300
26.282 299
26.322 298
26.362 297
26.402 296
26.443 295
26.484 294
26.508 293
26.552 292
26.596 291
26.641 290
26.686 289
26.733 288
26.778 287
26.821 286
26.866 285
26.914 284
26.962 283
27.007 282
27.056 281
27.104 280
27.153 279
27.203 278
27.252 277
27.302 276
27.350 275
27.399 274
27.450 273
27.503 272
27.553 271
27.604 270
27.656 269
27.708 268
27.761 267
27.813 266
27.867 265
27.920 264
27.972 263
28.024 262
28.077 261
28.135 260
28.190 259
28.244 258
28.300 257
28.358 256
28.412 255
28.468 254
28.526 253
28.584 252
28.641 251
28.701 250
28.759 249
28.817 248
28.876 247
28.937 246
28.998 245
29.058 244
29.118 243
29.178 242
29.238 241
29.305 240
29.368 239
29.428 238
29.493 237
29.556 236
29.621 235
29.686 234
29.750 233
29.816 232
29.883 231
29.950 230
30.017 229
30.084 228
30.153 227
30.222 226
30.290 225
30.360 224
30.431 223
30.501 222
30.570 221
30.640 220
30.713 219
30.787 218
30.858 217
30.933 216
31.011 215
31.085 214
31.159 213
31.234 212
31.311 211
31.388 210
31.468 209
31.544 208
31.622 207
31.704 206
31.779 205
31.861 204
31.946 203
32.023 202
32.105 201
32.192 200
32.275 199
32.357 198
32.442 197
32.525 196
32.612 195
32.700 194
32.786 193
32.873 192
32.963 191
33.053 190
33.145 189
33.237 188
33.330 187
33.419 186
33.509 185
33.604 184
33.699 183
33.794 182
33.891 181
33.989 180
34.090 179
34.189 178
34.286 177
34.386 176
34.488 175
34.594 174
34.697 173
34.799 172
34.907 171
35.015 170
35.119 169
35.223 168
35.334 167
35.446 166
35.556 165
35.668 164
35.778 163
35.890 162
36.005 161
36.120 160
36.237 159
36.352 158
36.470 157
36.590 156
36.708 155
36.828 154
36.950 153
37.073 152
37.198 151
37.323 150
37.450 149
37.580 148
37.707 147
37.838 146
37.971 145
38.105 144
38.240 143
38.374 142
38.514 141
38.650 140
38.789 139
38.934 138
39.074 137
39.221 136
39.369 135
39.514 134
39.664 133
39.816 132
39.970 131
40.123 130
40.278 129
40.434 128
40.593 127
40.754 126
40.917 125
41.078 124
41.240 123
41.410 122
41.583 121
41.754 120
41.926 119
42.103 118
42.283 117
42.462 116
42.636 115
42.814 114
43.003 113
43.190 112
43.377 111
43.573 110
43.771 109
43.967 108
44.165 107
44.364 106
44.564 105
44.781 104
44.996 103
45.202 102
45.416 101
45.637 100
45.868 99
46.092 98
46.314 97
46.551 96
46.790 95
47.028 94
47.267 93
47.512 92
47.764 91
48.017 90
48.273 89
48.535 88
48.804 87
49.075 86
49.343 85
49.620 84
49.908 83
50.192 82
50.486 81
50.788 80
51.088 79
51.394 78
51.697 77
52.013 76
52.339 75
52.669 74
53.010 73
53.347 72
53.696 71
54.079 70
54.140 69.8
54.210 69.6
54.277 69.4
54.355 69.2
54.432 69
54.502 68.8
54.576 68.6
54.651 68.4
54.727 68.2
54.801 68
54.891 67.8
54.963 67.6
55.037 67.4
55.111 67.2
55.189 67
55.270 66.8
55.345 66.6
55.421 66.4
55.499 66.2
55.575 66
55.658 65.8
55.738 65.6
55.817 65.4
55.890 65.2
55.969 65
56.056 64.8
56.136 64.6
56.220 64.4
56.304 64.2
56.377 64
56.458 63.8
56.544 63.6
56.629 63.4
56.712 63.2
56.792 63
56.875 62.8
56.963 62.6
57.052 62.4
57.121 62.2
57.205 62
57.295 61.8
57.377 61.6
57.468 61.4
57.551 61.2
57.639 61
57.730 60.8
57.819 60.6
57.904 60.4
57.998 60.2
58.086 60
58.174 59.8
58.266 59.6
58.358 59.4
58.449 59.2
58.541 59
58.629 58.8
58.722 58.6
58.814 58.4
58.909 58.2
59.009 58
59.103 57.8
59.196 57.6
59.292 57.4
59.370 57.2
59.471 57
59.575 56.8
59.670 56.6
59.769 56.4
59.865 56.2
59.967 56
60.064 55.8
60.161 55.6
60.268 55.4
60.369 55.2
60.452 55
60.554 54.8
60.654 54.6
60.761 54.4
60.867 54.2
60.970 54
61.070 53.8
61.177 53.6
61.291 53.4
61.380 53.2
61.485 53
61.604 52.8
61.705 52.6
61.818 52.4
61.934 52.2
62.047 52
62.157 51.8
62.277 51.6
62.374 51.4
62.483 51.2
62.603 51
62.709 50.8
62.822 50.6
62.916 50.4
63.040 50.2
63.164 50
63.277 49.8
63.399 49.6
63.507 49.4
63.628 49.2
63.747 49
63.869 48.8
63.969 48.6
64.087 48.4
64.164 48.2
64.225 48
64.336 47.8
64.458 47.6
64.590 47.4
64.707 47.2
64.831 47
64.963 46.8
65.083 46.6
65.215 46.4
65.343 46.2
65.476 46
65.608 45.8
65.730 45.6
65.860 45.4
65.999 45.2
66.133 45
66.254 44.8
66.396 44.6
66.543 44.4
66.665 44.2
66.793 44
66.936 43.8
67.068 43.6
67.208 43.4
67.354 43.2
67.496 43
67.638 42.8
67.782 42.6
67.918 42.4
68.061 42.2
68.217 42
68.367 41.8
68.507 41.6
68.676 41.4
68.820 41.2
68.955 41
69.111 40.8
69.275 40.6
69.423 40.4
69.558 40.2
69.735 40
69.901 39.8
70.049 39.6
70.200 39.4
70.363 39.2
70.529 39
70.685 38.8
70.859 38.6
71.020 38.4
71.171 38.2
71.333 38
71.506 37.8
71.663 37.6
71.844 37.4
72.031 37.2
72.188 37
72.375 36.8
72.559 36.6
72.712 36.4
72.887 36.2
73.067 36
73.248 35.8
73.438 35.6
73.623 35.4
73.795 35.2
73.986 35
74.183 34.8
74.365 34.6
74.572 34.4
74.766 34.2
74.932 34
75.127 33.8
75.330 33.6
75.533 33.4
75.748 33.2
75.956 33
76.134 32.8
76.306 32.6
76.510 32.4
76.763 32.2
76.949 32
77.149 31.8
77.413 31.6
77.630 31.4
77.817 31.2
78.020 31
78.222 30.8
78.448 30.6
78.687 30.4
78.923 30.2
79.153 30
79.255 29.9
79.359 29.8
79.471 29.7
79.587 29.6
79.713 29.5
79.832 29.4
79.943 29.3
80.069 29.2
80.204 29.1
80.321 29
80.427 28.9
80.541 28.8
80.664 28.7
80.785 28.6
80.903 28.5
81.024 28.4
81.157 28.3
81.293 28.2
81.411 28.1
81.529 28
81.647 27.9
81.767 27.8
81.889 27.7
82.012 27.6
82.140 27.5
82.265 27.4
82.399 27.3
82.536 27.2
82.670 27.1
82.806 27
82.943 26.9
83.069 26.8
83.195 26.7
83.328 26.6
83.461 26.5
83.597 26.4
83.736 26.3
83.883 26.2
84.012 26.1
84.141 26
84.282 25.9
84.428 25.8
84.568 25.7
84.700 25.6
84.858 25.5
84.997 25.4
85.130 25.3
85.271 25.2
85.417 25.1
85.563 25
85.707 24.9
85.850 24.8
85.994 24.7
86.138 24.6
86.283 24.5
86.428 24.4
86.571 24.3
86.712 24.2
86.857 24.1
87.036 24
87.194 23.9
87.345 23.8
87.495 23.7
87.675 23.6
87.837 23.5
87.966 23.4
88.126 23.3
88.287 23.2
88.450 23.1
88.616 23
88.779 22.9
88.920 22.8
89.102 22.7
89.287 22.6
89.419 22.5
89.587 22.4
89.774 22.3
89.938 22.2
90.109 22.1
90.300 22
90.465 21.9
90.605 21.8
90.785 21.7
90.965 21.6
91.149 21.5
91.312 21.4
91.464 21.3
91.630 21.2
91.840 21.1
92.033 21
92.226 20.9
92.392 20.8
92.586 20.7
92.782 20.6
92.979 20.5
93.171 20.4
93.361 20.3
93.552 20.2
93.743 20.1
93.935 20
94.128 19.9
94.320 19.8
94.517 19.7
94.716 19.6
94.916 19.5
95.114 19.4
95.312 19.3
95.523 19.2
95.738 19.1
95.954 19
96.171 18.9
96.382 18.8
96.588 18.7
96.794 18.6
97.002 18.5
97.218 18.4
97.440 18.3
97.659 18.2
97.871 18.1
98.084 18
98.319 17.9
98.575 17.8
98.832 17.7
99.025 17.6
99.186 17.5
99.535 17.4
99.784 17.3
100.026 17.2
100.262 17.1
100.489 17
100.758 16.9
101.013 16.8
101.257 16.7
101.503 16.6
101.776 16.5
102.029 16.4
102.283 16.3
102.537 16.2
102.782 16.1
102.962 16
103.317 15.9
103.606 15.8
103.878 15.7
104.151 15.6
104.424 15.5
104.702 15.4
104.989 15.3
105.277 15.2
105.561 15.1
105.845 15
106.130 14.9
106.428 14.8
106.734 14.7
107.045 14.6
107.355 14.5
107.664 14.4
107.959 14.3
108.290 14.2
108.623 14.1
108.940 14
109.260 13.9
109.579 13.8
109.875 13.7
110.207 13.6
110.580 13.5
110.937 13.4
111.281 13.3
111.609 13.2
111.933 13.1
112.323 13
112.727 12.9
113.081 12.8
113.457 12.7
113.854 12.6
114.236 12.5
114.478 12.4
114.971 12.3
115.402 12.2
115.805 12.1
116.208 12
116.615 11.9
117.043 11.8
117.472 11.7
117.889 11.6
118.335 11.5
118.760 11.4
119.204 11.3
119.661 11.2
120.142 11.1
120.594 11
121.042 10.9
121.518 10.8
122.003 10.7
122.497 10.6
123.037 10.5
123.558 10.4
124.023 10.3
124.542 10.2
125.072 10.1
125.614 10
126.174 9.9
126.750 9.8
127.309 9.7
127.857 9.6
128.443 9.5
129.038 9.4
129.652 9.3
130.260 9.2
130.861 9.1
131.502 9
132.161 8.9
132.844 8.8
133.530 8.7
134.215 8.6
134.904 8.5
135.628 8.4
136.363 8.3
137.093 8.2
137.837 8.1
138.619 8
138.775 7.98
138.931 7.96
139.088 7.94
139.265 7.92
139.455 7.9
139.647 7.88
139.830 7.86
139.985 7.84
140.128 7.82
140.274 7.8
140.419 7.78
140.563 7.76
140.712 7.74
140.874 7.72
141.044 7.7
141.211 7.68
141.379 7.66
141.547 7.64
141.715 7.62
141.883 7.6
142.051 7.58
142.219 7.56
142.389 7.54
142.568 7.52
142.749 7.5
142.928 7.48
143.108 7.46
143.289 7.44
143.469 7.42
143.649 7.4
143.829 7.38
144.009 7.36
144.189 7.34
144.370 7.32
144.551 7.3
144.733 7.28
144.914 7.26
145.095 7.24
145.276 7.22
145.458 7.2
145.639 7.18
145.820 7.16
146.007 7.14
146.202 7.12
146.396 7.1
146.590 7.08
146.784 7.06
146.979 7.04
147.173 7.02
147.367 7
147.561 6.98
147.757 6.96
147.970 6.94
148.200 6.92
148.419 6.9
148.618 6.88
148.810 6.86
149.004 6.84
149.197 6.82
149.391 6.8
149.584 6.78
149.781 6.76
149.991 6.74
150.206 6.72
150.419 6.7
150.633 6.68
150.847 6.66
151.061 6.64
151.275 6.62
151.490 6.6
151.701 6.58
151.933 6.56
152.199 6.54
152.463 6.52
152.690 6.5
152.896 6.48
153.106 6.46
153.316 6.44
153.525 6.42
153.734 6.4
153.944 6.38
154.171 6.36
154.408 6.34
154.645 6.32
154.881 6.3
155.118 6.28
155.355 6.26
155.591 6.24
155.828 6.22
156.065 6.2
156.307 6.18
156.555 6.16
156.803 6.14
157.050 6.12
157.298 6.1
157.545 6.08
157.792 6.06
158.040 6.04
158.287 6.02
158.535 6
158.782 5.98
159.030 5.96
159.286 5.94
159.554 5.92
159.822 5.9
160.090 5.88
160.359 5.86
160.625 5.84
160.898 5.82
161.190 5.8
161.489 5.78
161.787 5.76
162.074 5.74
162.350 5.72
162.624 5.7
162.900 5.68
163.174 5.66
163.454 5.64
163.741 5.62
164.030 5.6
164.319 5.58
164.610 5.56
164.902 5.54
165.194 5.52
165.484 5.5
165.781 5.48
166.097 5.46
166.412 5.44
166.713 5.42
167.016 5.4
167.319 5.38
167.617 5.36
167.936 5.34
168.286 5.32
168.626 5.3
168.953 5.28
169.282 5.26
169.598 5.24
169.903 5.22
170.209 5.2
170.517 5.18
170.837 5.16
171.169 5.14
171.498 5.12
171.834 5.1
172.175 5.08
172.524 5.06
172.896 5.04
173.244 5.02
173.569 5
173.917 4.98
174.274 4.96
174.642 4.94
175.015 4.92
175.376 4.9
175.723 4.88
176.088 4.86
176.469 4.84
176.848 4.82
177.258 4.8
177.650 4.78
178.000 4.76
178.375 4.74
178.770 4.72
179.162 4.7
179.564 4.68
179.934 4.66
180.257 4.64
180.537 4.62
180.948 4.6
181.554 4.58
182.073 4.56
182.471 4.54
182.895 4.52
183.331 4.5
183.694 4.48
184.007 4.46
184.438 4.44
184.947 4.42
185.435 4.4
185.911 4.38
186.373 4.36
186.836 4.34
187.299 4.32
187.765 4.3
188.236 4.28
188.708 4.26
189.175 4.24
189.642 4.22
190.118 4.2
190.595 4.18
191.070 4.16
191.561 4.14
192.070 4.12
192.582 4.1
193.093 4.08
193.609 4.06
194.129 4.04
194.647 4.02
195.177 4
195.719 3.98
196.260 3.96
196.804 3.94
197.352 3.92
197.900 3.9
198.456 3.88
199.024 3.86
199.596 3.84
200.169 3.82
200.745 3.8
201.326 3.78
201.913 3.76
202.502 3.74
203.084 3.72
203.665 3.7
204.282 3.68
204.915 3.66
205.551 3.64
206.197 3.62
206.835 3.6
207.467 3.58
208.115 3.56
208.788 3.54
209.459 3.52
210.139 3.5
210.821 3.48
211.525 3.46
212.235 3.44
212.935 3.42
213.656 3.4
214.382 3.38
215.101 3.36
215.824 3.34
216.579 3.32
217.379 3.3
218.153 3.28
218.883 3.26
219.647 3.24
220.460 3.22
221.263 3.2
222.089 3.18
222.945 3.16
223.761 3.14
224.602 3.12
225.479 3.1
226.315 3.08
227.190 3.06
228.100 3.04
228.988 3.02
229.927 3
230.824 2.98
231.698 2.96
232.714 2.94
233.730 2.92
234.690 2.9
235.655 2.88
236.599 2.86
237.586 2.84
238.595 2.82
239.673 2.8
240.826 2.78
241.869 2.76
242.916 2.74
244.012 2.72
245.116 2.7
246.237 2.68
247.360 2.66
248.602 2.64
249.878 2.62
251.114 2.6
252.334 2.58
253.508 2.56
254.748 2.54
256.021 2.52
257.223 2.5
258.586 2.48
259.984 2.46
261.269 2.44
262.597 2.42
264.107 2.4
265.566 2.38
266.971 2.36
268.468 2.34
270.019 2.32
271.567 2.3
273.033 2.28
274.573 2.26
276.216 2.24
278.006 2.22
279.879 2.2
281.666 2.18
283.370 2.16
285.051 2.14
286.835 2.12
288.799 2.1
290.701 2.08
292.476 2.06
294.369 2.04
296.461 2.02
298.462 2
299.429 1.99
300.421 1.98
301.465 1.97
302.561 1.96
303.675 1.95
304.799 1.94
305.910 1.93
307.035 1.92
308.169 1.91
309.307 1.9
310.456 1.89
311.620 1.88
312.796 1.87
313.967 1.86
315.176 1.85
316.441 1.84
317.700 1.83
318.931 1.82
320.135 1.81
321.326 1.8
322.509 1.79
323.717 1.78
325.013 1.77
326.355 1.76
327.723 1.75
329.135 1.74
330.580 1.73
332.033 1.72
333.490 1.71
335.021 1.7
336.577 1.69
338.048 1.68
339.495 1.67
340.938 1.66
342.419 1.65
343.968 1.64
345.555 1.63
347.164 1.62
348.753 1.61
350.373 1.6
352.093 1.59
353.848 1.58
355.517 1.57
357.143 1.56
358.832 1.55
360.605 1.54
362.466 1.53
364.389 1.52
366.338 1.51
368.234 1.5
370.162 1.49
372.106 1.48
374.041 1.47
375.981 1.46
377.949 1.45
379.982 1.44
382.071 1.43
384.189 1.42
386.357 1.41
388.565 1.4
390.847 1.39
393.160 1.38
395.484 1.37
397.801 1.36
400.133 1.35
402.501 1.34
404.944 1.33
407.485 1.32
410.048 1.31
412.673 1.3
415.325 1.29
418.009 1.28
420.698 1.27
423.421 1.26
426.243 1.25
429.146 1.24
432.088 1.23
435.060 1.22
438.099 1.21
441.219 1.2
444.411 1.19
447.666 1.18
450.958 1.17
454.300 1.16
457.733 1.15
461.257 1.14
464.814 1.13
468.405 1.12
472.087 1.11
475.887 1.1
479.800 1.09
483.777 1.08
487.814 1.07
491.906 1.06
496.105 1.05
500.388 1.04
504.795 1.03
509.326 1.02
513.944 1.01
518.658 1
523.504 0.99
528.489 0.98
533.593 0.97
538.815 0.96
544.143 0.95
549.551 0.94
555.101 0.93
560.849 0.92
566.750 0.91
572.810 0.9
579.053 0.89
585.514 0.88
592.119 0.87
598.917 0.86
605.815 0.85
612.781 0.84
619.941 0.83
627.460 0.82
635.312 0.81
643.444 0.8
644.274 0.799
645.107 0.798
645.942 0.797
646.782 0.796
647.627 0.795
648.475 0.794
649.324 0.793
650.174 0.792
651.027 0.791
651.881 0.79
652.735 0.789
653.591 0.788
654.448 0.787
655.304 0.786
656.162 0.785
657.020 0.784
657.878 0.783
658.737 0.782
659.598 0.781
660.463 0.78
661.331 0.779
662.198 0.778
663.069 0.777
663.942 0.776
664.820 0.775
665.700 0.774
666.581 0.773
667.465 0.772
668.352 0.771
669.241 0.77
670.135 0.769
671.032 0.768
671.930 0.767
672.831 0.766
673.738 0.765
674.651 0.764
675.567 0.763
676.486 0.762
677.405 0.761
678.325 0.76
679.250 0.759
680.181 0.758
681.114 0.757
682.048 0.756
682.984 0.755
683.925 0.754
684.867 0.753
685.812 0.752
686.762 0.751
687.713 0.75
688.666 0.749
689.625 0.748
690.583 0.747
691.546 0.746
692.512 0.745
693.480 0.744
694.453 0.743
695.427 0.742
696.405 0.741
697.388 0.74
698.374 0.739
699.362 0.738
700.354 0.737
701.346 0.736
702.342 0.735
703.343 0.734
704.347 0.733
705.361 0.732
706.385 0.731
707.404 0.73
708.428 0.729
709.454 0.728
710.484 0.727
711.517 0.726
712.553 0.725
713.595 0.724
714.637 0.723
715.683 0.722
716.735 0.721
717.789 0.72
718.845 0.719
719.903 0.718
720.968 0.717
722.034 0.716
723.104 0.715
724.178 0.714
725.252 0.713
726.331 0.712
727.414 0.711
728.497 0.71
729.587 0.709
730.679 0.708
731.774 0.707
732.868 0.706
733.966 0.705
735.071 0.704
736.185 0.703
737.310 0.702
738.436 0.701
739.561 0.7
740.690 0.699
741.824 0.698
742.964 0.697
744.109 0.696
745.259 0.695
746.410 0.694
747.565 0.693
748.725 0.692
749.891 0.691
751.058 0.69
752.227 0.689
753.400 0.688
754.577 0.687
755.759 0.686
756.945 0.685
758.134 0.684
759.326 0.683
760.523 0.682
761.727 0.681
762.934 0.68
764.141 0.679
765.351 0.678
766.570 0.677
767.791 0.676
769.013 0.675
770.238 0.674
771.466 0.673
772.703 0.672
773.945 0.671
775.191 0.67
776.439 0.669
777.722 0.668
779.014 0.667
780.274 0.666
781.536 0.665
782.799 0.664
784.063 0.663
785.337 0.662
786.618 0.661
787.906 0.66
789.204 0.659
790.505 0.658
791.808 0.657
793.110 0.656
794.422 0.655
795.748 0.654
797.075 0.653
798.409 0.652
799.752 0.651
801.099 0.65
802.449 0.649
803.808 0.648
805.171 0.647
806.547 0.646
807.930 0.645
809.312 0.644
810.700 0.643
812.094 0.642
813.496 0.641
814.901 0.64
816.308 0.639
817.723 0.638
819.143 0.637
820.567 0.636
822.001 0.635
823.443 0.634
824.889 0.633
826.346 0.632
827.812 0.631
829.283 0.63
830.760 0.629
832.240 0.628
833.726 0.627
835.219 0.626
836.716 0.625
838.220 0.624
839.728 0.623
841.250 0.622
842.779 0.621
844.309 0.62
845.850 0.619
847.398 0.618
848.949 0.617
850.504 0.616
852.068 0.615
853.639 0.614
855.219 0.613
856.805 0.612
858.390 0.611
859.982 0.61
861.588 0.609
863.196 0.608
864.803 0.607
866.422 0.606
868.052 0.605
869.688 0.604
871.338 0.603
872.991 0.602
874.647 0.601
876.312 0.6
877.992 0.599
879.679 0.598
881.368 0.597
883.064 0.596
884.771 0.595
886.482 0.594
888.200 0.593
889.925 0.592
891.654 0.591
893.385 0.59
895.129 0.589
896.881 0.588
898.640 0.587
900.411 0.586
902.191 0.585
903.985 0.584
905.781 0.583
907.580 0.582
909.393 0.581
911.212 0.58
913.038 0.579
914.870 0.578
916.713 0.577
918.566 0.576
920.424 0.575
922.289 0.574
924.164 0.573
926.055 0.572
927.964 0.571
929.874 0.57
931.791 0.569
933.739 0.568
935.653 0.567
937.554 0.566
939.497 0.565
941.448 0.564
943.412 0.563
945.386 0.562
947.363 0.561
949.347 0.56
951.347 0.559
953.356 0.558
955.367 0.557
957.395 0.556
959.441 0.555
961.489 0.554
963.542 0.553
965.608 0.552
967.680 0.551
969.767 0.55
971.869 0.549
973.986 0.548
976.112 0.547
978.239 0.546
980.371 0.545
982.510 0.544
984.666 0.543
986.838 0.542
989.011 0.541
991.199 0.54
993.405 0.539
995.621 0.538
997.851 0.537
1000.100 0.536
1002.357 0.535
1004.624 0.534
1006.906 0.533
1009.198 0.532
1011.496 0.531
1013.799 0.53
1016.111 0.529
1018.432 0.528
1020.773 0.527
1023.128 0.526
1025.487 0.525
1027.860 0.524
1030.242 0.523
1032.641 0.522
1035.051 0.521
1037.468 0.52
1039.908 0.519
1042.355 0.518
1044.808 0.517
1047.282 0.516
1049.771 0.515
1052.279 0.514
1054.805 0.513
1057.336 0.512
1059.875 0.511
1062.439 0.51
1065.025 0.509
1067.616 0.508
1070.220 0.507
1072.843 0.506
1075.476 0.505
1078.120 0.504
1080.787 0.503
1083.464 0.502
1086.160 0.501
1088.871 0.5
1091.597 0.499
1094.342 0.498
1097.098 0.497
1099.869 0.496
1102.663 0.495
1105.471 0.494
1108.293 0.493
1111.126 0.492
1113.976 0.491
1116.852 0.49
1119.745 0.489
1122.649 0.488
1125.576 0.487
1128.525 0.486
1131.483 0.485
1134.457 0.484
1137.440 0.483
1140.441 0.482
1143.465 0.481
1146.499 0.48
1149.546 0.479
1152.606 0.478
1155.689 0.477
1158.785 0.476
1161.895 0.475
1165.032 0.474
1168.187 0.473
1171.361 0.472
1174.550 0.471
1177.751 0.47
1180.980 0.469
1184.239 0.468
1187.502 0.467
1190.787 0.466
1194.094 0.465
1197.411 0.464
1200.749 0.463
1204.107 0.462
1207.484 0.461
1210.881 0.46
1214.294 0.459
1217.731 0.458
1221.206 0.457
1224.617 0.456
1228.076 0.455
1231.615 0.454
1235.125 0.453
1238.692 0.452
1242.316 0.451
1245.956 0.45
1249.620 0.449
1253.296 0.448
1256.974 0.447
1260.679 0.446
1264.416 0.445
1268.127 0.444
1271.867 0.443
1275.700 0.442
1279.561 0.441
1283.444 0.44
1287.346 0.439
1291.193 0.438
1295.089 0.437
1299.095 0.436
1303.098 0.435
1307.129 0.434
1311.203 0.433
1315.953 0.432
1321.055 0.431
1324.711 0.43
1328.445 0.429
1332.172 0.428
1336.027 0.427
1340.649 0.426
1345.126 0.425
1349.214 0.424
1353.351 0.423
1356.995 0.422
1361.358 0.421
1366.479 0.42
1370.139 0.419
1374.549 0.418
1379.524 0.417
1383.973 0.416
1388.329 0.415
1392.424 0.414
1395.945 0.413
1399.683 0.412
1403.662 0.411
1407.820 0.41
1412.281 0.409
1417.628 0.408
1422.705 0.407
1427.438 0.406
1432.447 0.405
1437.601 0.404
1442.904 0.403
1448.315 0.402
1453.628 0.401
1459.178 0.4
1465.141 0.399
1471.187 0.398
1477.465 0.397
1483.954 0.396
1490.092 0.395
1496.294 0.394
1502.467 0.393
1508.716 0.392
1515.377 0.391
1522.313 0.39
1528.573 0.389
1534.889 0.388
1541.041 0.387
1547.297 0.386
1553.861 0.385
1560.408 0.384
1566.984 0.383
1573.583 0.382
1580.169 0.381
1586.769 0.38
1593.344 0.379
1599.912 0.378
1606.531 0.377
1613.119 0.376
1619.700 0.375
1626.282 0.374
1632.835 0.373
1639.350 0.372
1645.849 0.371
1652.338 0.37
1658.811 0.369
1665.264 0.368
1671.687 0.367
1678.093 0.366
1684.475 0.365
1690.841 0.364
1697.201 0.363
1703.552 0.362
1709.900 0.361
1716.265 0.36
1722.750 0.359
1729.212 0.358
1735.497 0.357
1741.745 0.356
1748.137 0.355
1754.559 0.354
1760.979 0.353
1767.525 0.352
1774.106 0.351
1780.709 0.35
1787.383 0.349
1794.125 0.348
1800.950 0.347
1807.895 0.346
1814.926 0.345
1822.066 0.344
1829.392 0.343
1836.870 0.342
1844.442 0.341
1852.139 0.34
1859.992 0.339
1868.039 0.338
1876.363 0.337
1884.979 0.336
1893.781 0.335
1902.688 0.334
1911.770 0.333
1921.090 0.332
1929.820 0.331
1937.918 0.33
1947.391 0.329
1957.104 0.328
1967.169 0.327
1977.485 0.326
1987.205 0.325
1997.047 0.324
2007.368 0.323
2017.771 0.322
2028.908 0.321
2039.579 0.32
2049.351 0.319
2060.578 0.318
2071.229 0.317
2081.121 0.316
2091.255 0.315
2101.338 0.314
2111.635 0.313
2122.697 0.312
2133.896 0.311
2145.250 0.31
2156.861 0.309
2168.568 0.308
2179.502 0.307
2190.698 0.306
2202.460 0.305
2214.269 0.304
2226.193 0.303
2238.175 0.302
2250.318 0.301
2262.945 0.3
2275.749 0.299
2288.455 0.298
2301.362 0.297
2314.195 0.296
2326.830 0.295
2339.966 0.294
2353.249 0.293
2366.788 0.292
2380.484 0.291
2393.952 0.29
2407.084 0.289
2420.795 0.288
2434.667 0.287
2449.065 0.286
2463.664 0.285
2478.194 0.284
2492.933 0.283
2507.787 0.282
2522.716 0.281
2537.727 0.28
2552.873 0.279
2568.305 0.278
2583.983 0.277
2599.901 0.276
2616.162 0.275
2632.708 0.274
2649.490 0.273
2666.524 0.272
2683.817 0.271
2701.287 0.27
2718.925 0.269
2736.731 0.268
2754.776 0.267
2772.736 0.266
2790.923 0.265
2809.354 0.264
2828.023 0.263
2846.932 0.262
2866.087 0.261
2885.486 0.26
2905.107 0.259
2924.816 0.258
2944.725 0.257
2965.021 0.256
2985.608 0.255
3006.447 0.254
3027.559 0.253
3048.935 0.252
3070.572 0.251
3092.487 0.25
3114.685 0.249
3137.176 0.248
3159.957 0.247
3183.029 0.246
3206.383 0.245
3230.041 0.244
3253.992 0.243
3278.240 0.242
3302.794 0.241
3327.645 0.24
3352.812 0.239
3378.306 0.238
3404.090 0.237
3430.189 0.236
3456.506 0.235
3483.025 0.234
3509.947 0.233
3537.251 0.232
3564.895 0.231
3592.872 0.23
3621.193 0.229
3649.876 0.228
3678.922 0.227
3708.347 0.226
3738.151 0.225
3768.261 0.224
3798.739 0.223
3829.592 0.222
3860.822 0.221
3892.434 0.22
3924.433 0.219
3956.824 0.218
3989.610 0.217
4022.797 0.216
4056.390 0.215
4090.392 0.214
4124.809 0.213
4159.646 0.212
4194.906 0.211
4230.596 0.21
4266.720 0.209
4303.282 0.208
4340.289 0.207
4377.744 0.206
4415.653 0.205
4454.020 0.204
4492.852 0.203
4532.153 0.202
4571.927 0.201
4612.181 0.2
4652.920 0.199
4694.148 0.198
4735.871 0.197
4778.095 0.196
4820.824 0.195
4864.065 0.194
4907.822 0.193
4952.101 0.192
4996.907 0.191
5042.247 0.19
5088.125 0.189
5134.547 0.188
5181.520 0.187
5229.047 0.186
5277.136 0.185
5325.792 0.184
5375.020 0.183
5424.827 0.182
5475.218 0.181
5526.200 0.18
5577.778 0.179
5629.957 0.178
5682.745 0.177
5736.147 0.176
5790.169 0.175
