# TIME w/ LS370, calibrated against X107797
# Calibration data taken from 20190803 to 20200109
# Constrained by data from 0.241K to 297.7K, extrapolated elsewhere
# Calibration generated 2020-01-09 13:12:29.771662, verified monotonic
# R[Ohms] T[K]
50.656 325
50.738 324
50.821 323
50.905 322
50.989 321
51.075 320
51.162 319
51.249 318
51.338 317
51.427 316
51.518 315
51.609 314
51.701 313
51.794 312
51.889 311
51.984 310
52.080 309
52.177 308
52.275 307
52.374 306
52.473 305
52.574 304
52.676 303
52.778 302
52.882 301
52.986 300
53.092 299
53.198 298
53.256 297
53.377 296
53.493 295
53.603 294
53.716 293
53.835 292
53.952 291
54.068 290
54.184 289
54.307 288
54.433 287
54.555 286
54.678 285
54.801 284
54.922 283
55.045 282
55.171 281
55.296 280
55.420 279
55.546 278
55.674 277
55.800 276
55.928 275
56.057 274
56.186 273
56.317 272
56.450 271
56.580 270
56.712 269
56.847 268
56.983 267
57.117 266
57.253 265
57.389 264
57.528 263
57.670 262
57.809 261
57.949 260
58.092 259
58.235 258
58.378 257
58.523 256
58.669 255
58.817 254
58.964 253
59.111 252
59.257 251
59.407 250
59.560 249
59.712 248
59.867 247
60.021 246
60.175 245
60.331 244
60.487 243
60.645 242
60.807 241
60.968 240
61.130 239
61.289 238
61.452 237
61.618 236
61.782 235
61.948 234
62.118 233
62.286 232
62.451 231
62.626 230
62.803 229
62.976 228
63.149 227
63.326 226
63.500 225
63.674 224
63.858 223
64.034 222
64.178 221
64.330 220
64.514 219
64.698 218
64.883 217
65.071 216
65.257 215
65.448 214
65.645 213
65.838 212
66.031 211
66.228 210
66.430 209
66.631 208
66.833 207
67.032 206
67.235 205
67.441 204
67.643 203
67.849 202
68.061 201
68.271 200
68.483 199
68.696 198
68.914 197
69.135 196
69.350 195
69.567 194
69.796 193
70.024 192
70.248 191
70.472 190
70.701 189
70.934 188
71.169 187
71.406 186
71.646 185
71.883 184
72.125 183
72.372 182
72.617 181
72.866 180
73.113 179
73.368 178
73.627 177
73.880 176
74.131 175
74.391 174
74.659 173
74.923 172
75.188 171
75.459 170
75.731 169
76.007 168
76.282 167
76.560 166
76.841 165
77.124 164
77.409 163
77.698 162
77.988 161
78.278 160
78.575 159
78.873 158
79.171 157
79.475 156
79.780 155
80.089 154
80.402 153
80.717 152
81.038 151
81.363 150
81.687 149
82.026 148
82.376 147
82.711 146
83.049 145
83.392 144
83.735 143
84.076 142
84.423 141
84.782 140
85.142 139
85.500 138
85.863 137
86.236 136
86.611 135
86.987 134
87.361 133
87.739 132
88.134 131
88.526 130
88.918 129
89.323 128
89.727 127
90.134 126
90.550 125
90.962 124
91.379 123
91.808 122
92.241 121
92.676 120
93.108 119
93.554 118
94.010 117
94.464 116
94.950 115
95.485 114
96.003 113
96.476 112
96.954 111
97.446 110
97.949 109
98.460 108
98.966 107
99.478 106
100.000 105
100.527 104
101.066 103
101.613 102
102.161 101
102.714 100
103.275 99
103.857 98
104.443 97
105.026 96
105.622 95
106.231 94
106.850 93
107.474 92
108.099 91
108.747 90
109.407 89
110.071 88
110.747 87
111.425 86
112.121 85
112.837 84
113.551 83
114.273 82
115.021 81
115.769 80
116.516 79
117.318 78
118.136 77
118.942 76
119.771 75
120.618 74
121.471 73
122.353 72
123.241 71
124.142 70
124.323 69.8
124.502 69.6
124.685 69.4
124.876 69.2
125.067 69
125.255 68.8
125.445 68.6
125.635 68.4
125.826 68.2
126.017 68
126.205 67.8
126.401 67.6
126.590 67.4
126.778 67.2
126.985 67
127.181 66.8
127.376 66.6
127.578 66.4
127.770 66.2
127.959 66
128.156 65.8
128.362 65.6
128.562 65.4
128.760 65.2
128.972 65
129.189 64.8
129.384 64.6
129.595 64.4
129.813 64.2
130.016 64
130.211 63.8
130.409 63.6
130.624 63.4
130.834 63.2
131.040 63
131.261 62.8
131.491 62.6
131.708 62.4
131.914 62.2
132.135 62
132.356 61.8
132.563 61.6
132.764 61.4
133.004 61.2
133.246 61
133.453 60.8
133.675 60.6
133.901 60.4
134.119 60.2
134.347 60
134.564 59.8
134.777 59.6
135.000 59.4
135.244 59.2
135.497 59
135.740 58.8
135.983 58.6
136.218 58.4
136.447 58.2
136.685 58
136.937 57.8
137.189 57.6
137.410 57.4
137.643 57.2
137.885 57
138.122 56.8
138.381 56.6
138.625 56.4
138.869 56.2
139.126 56
139.376 55.8
139.630 55.6
139.890 55.4
140.136 55.2
140.388 55
140.642 54.8
140.905 54.6
141.169 54.4
141.430 54.2
141.696 54
141.963 53.8
142.231 53.6
142.494 53.4
142.749 53.2
143.012 53
143.296 52.8
143.575 52.6
143.845 52.4
144.142 52.2
144.437 52
144.695 51.8
144.979 51.6
145.250 51.4
145.517 51.2
145.812 51
146.099 50.8
146.391 50.6
146.675 50.4
146.956 50.2
147.240 50
147.543 49.8
147.842 49.6
148.142 49.4
148.450 49.2
148.736 49
149.021 48.8
149.342 48.6
149.673 48.4
149.977 48.2
150.279 48
150.575 47.8
150.889 47.6
151.213 47.4
151.537 47.2
151.850 47
152.164 46.8
152.486 46.6
152.811 46.4
153.127 46.2
153.453 46
153.792 45.8
154.117 45.6
154.450 45.4
154.784 45.2
155.126 45
155.468 44.8
155.826 44.6
156.180 44.4
156.497 44.2
156.849 44
157.217 43.8
157.561 43.6
157.895 43.4
158.263 43.2
158.640 43
159.015 42.8
159.389 42.6
159.738 42.4
160.091 42.2
160.469 42
160.884 41.8
161.278 41.6
161.626 41.4
161.985 41.2
162.362 41
162.774 40.8
163.163 40.6
163.535 40.4
163.934 40.2
164.344 40
164.734 39.8
165.137 39.6
165.559 39.4
165.972 39.2
166.383 39
166.791 38.8
167.189 38.6
167.620 38.4
168.059 38.2
168.487 38
168.908 37.8
169.344 37.6
169.816 37.4
170.266 37.2
170.691 37
171.104 36.8
171.560 36.6
172.066 36.4
172.515 36.2
172.952 36
173.413 35.8
173.863 35.6
174.341 35.4
174.825 35.2
175.313 35
175.796 34.8
176.259 34.6
176.759 34.4
177.269 34.2
177.751 34
178.227 33.8
178.741 33.6
179.240 33.4
179.763 33.2
180.298 33
180.812 32.8
181.325 32.6
181.857 32.4
182.381 32.2
182.906 32
183.444 31.8
183.966 31.6
184.529 31.4
185.135 31.2
185.688 31
186.225 30.8
186.812 30.6
187.394 30.4
187.991 30.2
188.583 30
188.850 29.9
189.143 29.8
189.443 29.7
189.735 29.6
190.053 29.5
190.362 29.4
190.653 29.3
190.953 29.2
191.279 29.1
191.567 29
191.860 28.9
192.188 28.8
192.493 28.7
192.802 28.6
193.134 28.5
193.447 28.4
193.762 28.3
194.092 28.2
194.413 28.1
194.724 28
195.039 27.9
195.375 27.8
195.729 27.7
196.057 27.6
196.379 27.5
196.718 27.4
197.041 27.3
197.364 27.2
197.692 27.1
198.051 27
198.413 26.9
198.742 26.8
199.052 26.7
199.405 26.6
199.771 26.5
200.108 26.4
200.461 26.3
200.838 26.2
201.196 26.1
201.541 26
201.855 25.9
202.217 25.8
202.604 25.7
202.989 25.6
203.371 25.5
203.749 25.4
204.106 25.3
204.463 25.2
204.850 25.1
205.230 25
205.599 24.9
205.965 24.8
206.365 24.7
206.776 24.6
207.143 24.5
207.514 24.4
207.926 24.3
208.318 24.2
208.698 24.1
209.113 24
209.509 23.9
209.877 23.8
210.298 23.7
210.691 23.6
211.106 23.5
211.577 23.4
211.967 23.3
212.339 23.2
212.780 23.1
213.212 23
213.620 22.9
214.056 22.8
214.489 22.7
214.938 22.6
215.398 22.5
215.830 22.4
216.260 22.3
216.693 22.2
217.123 22.1
217.568 22
218.027 21.9
218.501 21.8
218.981 21.7
219.408 21.6
219.867 21.5
220.358 21.4
220.845 21.3
221.312 21.2
221.775 21.1
222.281 21
222.756 20.9
223.217 20.8
223.718 20.7
224.210 20.6
224.710 20.5
225.244 20.4
225.734 20.3
226.206 20.2
226.748 20.1
227.272 20
227.784 19.9
228.331 19.8
228.846 19.7
229.334 19.6
229.875 19.5
230.436 19.4
231.005 19.3
231.558 19.2
232.077 19.1
232.630 19
233.192 18.9
233.743 18.8
234.302 18.7
234.833 18.6
235.424 18.5
236.032 18.4
236.638 18.3
237.236 18.2
237.804 18.1
238.400 18
239.038 17.9
239.676 17.8
240.281 17.7
240.870 17.6
241.455 17.5
242.107 17.4
242.779 17.3
243.434 17.2
244.110 17.1
244.778 17
245.447 16.9
246.122 16.8
246.823 16.7
247.440 16.6
248.089 16.5
248.688 16.4
249.430 16.3
250.190 16.2
250.916 16.1
251.685 16
252.409 15.9
253.117 15.8
253.798 15.7
254.501 15.6
255.228 15.5
256.021 15.4
256.809 15.3
257.576 15.2
258.408 15.1
259.221 15
259.986 14.9
260.749 14.8
261.531 14.7
262.380 14.6
263.299 14.5
264.196 14.4
264.959 14.3
265.739 14.2
266.636 14.1
267.579 14
268.537 13.9
269.422 13.8
270.268 13.7
271.200 13.6
272.139 13.5
273.124 13.4
274.076 13.3
275.070 13.2
276.044 13.1
276.986 13
278.081 12.9
279.132 12.8
280.092 12.7
281.129 12.6
282.223 12.5
283.278 12.4
284.374 12.3
285.477 12.2
286.564 12.1
287.725 12
288.895 11.9
290.088 11.8
291.286 11.7
292.461 11.6
293.678 11.5
294.922 11.4
296.155 11.3
297.398 11.2
298.713 11.1
300.053 11
301.368 10.9
302.707 10.8
304.102 10.7
305.499 10.6
306.914 10.5
308.347 10.4
309.781 10.3
311.269 10.2
312.803 10.1
314.306 10
315.853 9.9
317.508 9.8
319.138 9.7
320.752 9.6
322.449 9.5
324.126 9.4
325.844 9.3
327.641 9.2
329.446 9.1
331.317 9
333.268 8.9
335.198 8.8
337.135 8.7
339.153 8.6
341.186 8.5
343.254 8.4
345.400 8.3
347.584 8.2
349.852 8.1
352.138 8
352.546 7.98
352.977 7.96
353.467 7.94
353.942 7.92
354.388 7.9
354.867 7.88
355.370 7.86
355.811 7.84
356.276 7.82
356.809 7.8
357.303 7.78
357.777 7.76
358.258 7.74
358.752 7.72
359.235 7.7
359.696 7.68
360.211 7.66
360.738 7.64
361.216 7.62
361.710 7.6
362.250 7.58
362.768 7.56
363.317 7.54
363.824 7.52
364.273 7.5
364.788 7.48
365.312 7.46
365.865 7.44
366.395 7.42
366.904 7.4
367.459 7.38
368.029 7.36
368.554 7.34
369.039 7.32
369.575 7.3
370.163 7.28
370.753 7.26
371.294 7.24
371.838 7.22
372.410 7.2
372.971 7.18
373.529 7.16
374.067 7.14
374.621 7.12
375.247 7.1
375.820 7.08
376.383 7.06
376.950 7.04
377.499 7.02
378.110 7
378.724 6.98
379.332 6.96
379.928 6.94
380.512 6.92
381.102 6.9
381.720 6.88
382.325 6.86
382.936 6.84
383.538 6.82
384.168 6.8
384.794 6.78
385.404 6.76
386.078 6.74
386.726 6.72
387.326 6.7
387.966 6.68
388.607 6.66
389.240 6.64
389.888 6.62
390.549 6.6
391.232 6.58
391.897 6.56
392.566 6.54
393.237 6.52
393.904 6.5
394.585 6.48
395.291 6.46
395.972 6.44
396.646 6.42
397.347 6.4
398.042 6.38
398.757 6.36
399.477 6.34
400.173 6.32
400.886 6.3
401.603 6.28
402.322 6.26
403.063 6.24
403.804 6.22
404.537 6.2
405.291 6.18
406.040 6.16
406.781 6.14
407.531 6.12
408.280 6.1
409.040 6.08
409.839 6.06
410.620 6.04
411.377 6.02
412.143 6
412.928 5.98
413.733 5.96
414.532 5.94
415.342 5.92
416.158 5.9
416.971 5.88
417.805 5.86
418.620 5.84
419.431 5.82
420.280 5.8
421.126 5.78
421.962 5.76
422.812 5.74
423.682 5.72
424.566 5.7
425.450 5.68
426.312 5.66
427.180 5.64
428.078 5.62
429.020 5.6
429.891 5.58
430.761 5.56
431.686 5.54
432.615 5.52
433.527 5.5
434.420 5.48
435.378 5.46
436.346 5.44
437.279 5.42
438.203 5.4
439.186 5.38
440.200 5.36
441.196 5.34
442.181 5.32
443.164 5.3
444.153 5.28
445.161 5.26
446.204 5.24
447.225 5.22
448.226 5.2
449.279 5.18
450.444 5.16
451.454 5.14
452.374 5.12
453.484 5.1
454.614 5.08
455.707 5.06
456.836 5.04
457.961 5.02
459.050 5
460.196 4.98
461.353 4.96
462.427 4.94
463.540 4.92
464.728 4.9
465.898 4.88
467.081 4.86
468.294 4.84
469.507 4.82
470.728 4.8
471.916 4.78
473.155 4.76
474.391 4.74
475.621 4.72
476.937 4.7
478.094 4.68
479.306 4.66
480.641 4.64
481.928 4.62
483.258 4.6
484.582 4.58
485.922 4.56
487.281 4.54
488.612 4.52
489.968 4.5
491.451 4.48
492.853 4.46
494.229 4.44
495.704 4.42
497.144 4.4
498.579 4.38
500.025 4.36
501.510 4.34
503.005 4.32
504.427 4.3
505.869 4.28
507.361 4.26
508.995 4.24
510.637 4.22
512.248 4.2
513.952 4.18
515.579 4.16
517.165 4.14
518.812 4.12
520.409 4.1
522.049 4.08
523.788 4.06
525.473 4.04
527.202 4.02
528.975 4
530.752 3.98
532.548 3.96
534.370 3.94
536.200 3.92
538.001 3.9
539.870 3.88
541.795 3.86
543.723 3.84
545.664 3.82
547.556 3.8
549.461 3.78
551.457 3.76
553.477 3.74
555.498 3.72
557.542 3.7
559.584 3.68
561.682 3.66
563.827 3.64
565.961 3.62
568.032 3.6
570.199 3.58
572.501 3.56
574.763 3.54
577.091 3.52
579.441 3.5
581.693 3.48
584.009 3.46
586.402 3.44
588.849 3.42
591.287 3.4
593.717 3.38
596.279 3.36
598.824 3.34
601.279 3.32
603.812 3.3
606.484 3.28
609.236 3.26
611.955 3.24
614.626 3.22
617.430 3.2
620.288 3.18
623.184 3.16
626.064 3.14
628.899 3.12
631.923 3.1
634.941 3.08
637.970 3.06
641.139 3.04
644.278 3.02
647.551 3
650.815 2.98
654.016 2.96
657.449 2.94
660.886 2.92
664.201 2.9
667.667 2.88
671.433 2.86
674.994 2.84
678.378 2.82
682.014 2.8
686.128 2.78
689.897 2.76
693.402 2.74
697.473 2.72
701.489 2.7
705.448 2.68
709.811 2.66
714.166 2.64
718.229 2.62
722.612 2.6
727.117 2.58
731.567 2.56
736.217 2.54
740.953 2.52
745.482 2.5
750.372 2.48
755.470 2.46
760.418 2.44
765.770 2.42
770.708 2.4
775.724 2.38
781.339 2.36
787.077 2.34
792.650 2.32
798.312 2.3
804.383 2.28
810.281 2.26
816.534 2.24
822.904 2.22
828.935 2.2
835.592 2.18
842.411 2.16
849.195 2.14
856.201 2.12
862.923 2.1
869.814 2.08
876.885 2.06
884.204 2.04
891.984 2.02
899.873 2
903.977 1.99
908.099 1.98
912.150 1.97
916.244 1.96
920.515 1.95
924.861 1.94
929.254 1.93
933.699 1.92
938.064 1.91
942.387 1.9
946.804 1.89
951.274 1.88
955.796 1.87
960.426 1.86
965.306 1.85
970.240 1.84
975.087 1.83
979.948 1.82
984.898 1.81
990.041 1.8
995.261 1.79
1000.520 1.78
1005.767 1.77
1010.986 1.76
1016.333 1.75
1021.867 1.74
1027.538 1.73
1033.252 1.72
1038.932 1.71
1044.674 1.7
1050.492 1.69
1056.383 1.68
1062.497 1.67
1068.801 1.66
1075.078 1.65
1081.474 1.64
1088.054 1.63
1094.699 1.62
1101.398 1.61
1108.237 1.6
1115.114 1.59
1121.933 1.58
1128.927 1.57
1136.116 1.56
1143.369 1.55
1150.750 1.54
1158.273 1.53
1165.991 1.52
1174.034 1.51
1182.258 1.5
1190.506 1.49
1198.711 1.48
1206.875 1.47
1215.192 1.46
1223.854 1.45
1232.864 1.44
1241.897 1.43
1250.852 1.42
1259.995 1.41
1269.298 1.4
1278.949 1.39
1288.800 1.38
1298.805 1.37
1308.944 1.36
1319.184 1.35
1329.972 1.34
1341.009 1.33
1352.213 1.32
1363.621 1.31
1374.967 1.3
1386.335 1.29
1398.242 1.28
1410.928 1.27
1424.080 1.26
1437.261 1.25
1449.846 1.24
1462.173 1.23
1475.095 1.22
1488.706 1.21
1503.082 1.2
1517.949 1.19
1533.410 1.18
1548.681 1.17
1564.319 1.16
1580.703 1.15
1596.762 1.14
1613.263 1.13
1630.289 1.12
1647.219 1.11
1664.060 1.1
1681.304 1.09
1700.049 1.08
1719.961 1.07
1740.687 1.06
1761.936 1.05
1783.584 1.04
1806.156 1.03
1828.063 1.02
1850.089 1.01
1872.234 1
1894.749 0.99
1919.132 0.98
1945.327 0.97
1972.484 0.96
1999.793 0.95
2028.298 0.94
2057.666 0.93
2087.055 0.92
2117.330 0.91
2147.958 0.9
2180.344 0.89
2214.283 0.88
2249.454 0.87
2285.761 0.86
2322.337 0.85
2361.067 0.84
2401.421 0.83
2443.464 0.82
2485.685 0.81
2532.154 0.8
2536.680 0.799
2541.178 0.798
2545.661 0.797
2550.131 0.796
2554.585 0.795
2559.024 0.794
2563.452 0.793
2567.870 0.792
2572.283 0.791
2576.687 0.79
2581.090 0.789
2585.501 0.788
2589.920 0.787
2594.351 0.786
2598.793 0.785
2603.249 0.784
2607.726 0.783
2612.227 0.782
2616.749 0.781
2621.290 0.78
2625.864 0.779
2630.503 0.778
2635.190 0.777
2639.903 0.776
2644.627 0.775
2649.394 0.774
2654.215 0.773
2659.077 0.772
2663.977 0.771
2668.917 0.77
2673.899 0.769
2678.919 0.768
2683.975 0.767
2689.063 0.766
2694.193 0.765
2699.360 0.764
2704.556 0.763
2709.815 0.762
2715.093 0.761
2720.394 0.76
2725.734 0.759
2731.119 0.758
2736.544 0.757
2742.010 0.756
2747.503 0.755
2753.030 0.754
2758.601 0.753
2764.215 0.752
2769.871 0.751
2775.571 0.75
2781.294 0.749
2787.052 0.748
2792.874 0.747
2798.747 0.746
2804.647 0.745
2810.573 0.744
2816.522 0.743
2822.487 0.742
2828.512 0.741
2834.582 0.74
2840.645 0.739
2846.721 0.738
2852.827 0.737
2858.955 0.736
2865.103 0.735
2871.253 0.734
2877.397 0.733
2883.558 0.732
2889.716 0.731
2895.857 0.73
2902.055 0.729
2908.258 0.728
2914.464 0.727
2920.666 0.726
2926.849 0.725
2932.998 0.724
2939.108 0.723
2945.205 0.722
2951.307 0.721
2957.380 0.72
2963.418 0.719
2969.418 0.718
2975.387 0.717
2981.323 0.716
2987.212 0.715
2993.196 0.714
2999.472 0.713
3006.113 0.712
3013.188 0.711
3019.960 0.71
3026.403 0.709
3032.855 0.708
3039.454 0.707
3046.264 0.706
3052.995 0.705
3059.668 0.704
3066.371 0.703
3073.098 0.702
3079.856 0.701
3086.637 0.7
3093.454 0.699
3100.325 0.698
3107.220 0.697
3114.123 0.696
3121.060 0.695
3128.047 0.694
3135.077 0.693
3142.148 0.692
3149.246 0.691
3156.361 0.69
3163.539 0.689
3170.770 0.688
3178.016 0.687
3185.283 0.686
3192.592 0.685
3199.938 0.684
3207.310 0.683
3214.723 0.682
3222.166 0.681
3229.630 0.68
3237.148 0.679
3244.712 0.678
3252.280 0.677
3259.866 0.676
3267.489 0.675
3275.175 0.674
3282.905 0.673
3290.679 0.672
3298.471 0.671
3306.297 0.67
3314.160 0.669
3322.076 0.668
3330.043 0.667
3338.038 0.666
3346.073 0.665
3354.128 0.664
3362.242 0.663
3370.442 0.662
3378.646 0.661
3386.883 0.66
3395.187 0.659
3403.522 0.658
3411.861 0.657
3420.217 0.656
3428.615 0.655
3437.080 0.654
3445.592 0.653
3454.118 0.652
3462.674 0.651
3471.295 0.65
3479.951 0.649
3488.672 0.648
3497.458 0.647
3506.266 0.646
3515.099 0.645
3523.960 0.644
3532.839 0.643
3541.784 0.642
3550.827 0.641
3559.860 0.64
3568.897 0.639
3578.053 0.638
3587.241 0.637
3596.454 0.636
3605.803 0.635
3615.124 0.634
3624.463 0.633
3633.884 0.632
3643.347 0.631
3652.860 0.63
3662.450 0.629
3672.058 0.628
3681.726 0.627
3691.428 0.626
3701.151 0.625
3710.921 0.624
3720.803 0.623
3730.736 0.622
3740.698 0.621
3750.744 0.62
3760.832 0.619
3770.982 0.618
3781.205 0.617
3791.500 0.616
3801.811 0.615
3812.155 0.614
3822.559 0.613
3832.995 0.612
3843.505 0.611
3854.104 0.61
3864.783 0.609
3875.507 0.608
3886.270 0.607
3897.164 0.606
3908.087 0.605
3919.040 0.604
3930.057 0.603
3941.161 0.602
3952.321 0.601
3963.520 0.6
3974.800 0.599
3986.158 0.598
3997.567 0.597
4009.043 0.596
4020.601 0.595
4032.233 0.594
4043.889 0.593
4055.584 0.592
4067.386 0.591
4079.273 0.59
4091.211 0.589
4103.206 0.588
4115.282 0.587
4127.437 0.586
4139.676 0.585
4151.943 0.584
4164.274 0.583
4176.704 0.582
4189.204 0.581
4201.768 0.58
4214.421 0.579
4227.162 0.578
4239.964 0.577
4252.795 0.576
4265.708 0.575
4278.708 0.574
4291.778 0.573
4304.914 0.572
4318.092 0.571
4331.383 0.57
4344.745 0.569
4358.209 0.568
4371.746 0.567
4385.358 0.566
4399.088 0.565
4412.916 0.564
4426.846 0.563
4440.827 0.562
4454.841 0.561
4468.972 0.56
4483.226 0.559
4497.518 0.558
4511.914 0.557
4526.446 0.556
4541.059 0.555
4555.730 0.554
4570.470 0.553
4585.281 0.552
4600.137 0.551
4615.155 0.55
4630.246 0.549
4645.424 0.548
4660.774 0.547
4676.209 0.546
4691.665 0.545
4707.280 0.544
4723.034 0.543
4738.840 0.542
4754.813 0.541
4770.862 0.54
4786.975 0.539
4803.262 0.538
4819.639 0.537
4836.100 0.536
4852.688 0.535
4869.267 0.534
4885.991 0.533
4902.857 0.532
4919.816 0.531
4936.932 0.53
4954.138 0.529
4971.321 0.528
4988.638 0.527
5006.126 0.526
5023.736 0.525
5041.521 0.524
5059.526 0.523
5077.544 0.522
5095.646 0.521
5113.979 0.52
5132.326 0.519
5150.642 0.518
5169.017 0.517
5187.735 0.516
5206.546 0.515
5225.555 0.514
5244.751 0.513
5264.113 0.512
5283.086 0.511
5301.330 0.51
5321.622 0.509
5341.839 0.508
5362.175 0.507
5382.780 0.506
5403.450 0.505
5424.201 0.504
5444.994 0.503
5465.918 0.502
5487.009 0.501
5508.159 0.5
5529.308 0.499
5550.615 0.498
5572.179 0.497
5593.896 0.496
5615.650 0.495
5637.653 0.494
5659.607 0.493
5681.422 0.492
5703.657 0.491
5726.100 0.49
5748.598 0.489
5771.451 0.488
5794.545 0.487
5817.692 0.486
5841.042 0.485
5864.502 0.484
5888.230 0.483
5912.142 0.482
5936.165 0.481
5960.005 0.48
5984.437 0.479
6009.051 0.478
6033.927 0.477
6058.937 0.476
6083.964 0.475
6109.255 0.474
6134.813 0.473
6160.688 0.472
6186.754 0.471
6213.024 0.47
6239.604 0.469
6266.465 0.468
6293.546 0.467
6320.701 0.466
6347.980 0.465
6375.314 0.464
6402.944 0.463
6431.004 0.462
6459.372 0.461
6488.100 0.46
6517.051 0.459
6546.109 0.458
6575.497 0.457
6605.076 0.456
6634.792 0.455
6664.974 0.454
6695.446 0.453
6726.096 0.452
6756.945 0.451
6788.204 0.45
6819.841 0.449
6851.747 0.448
6883.946 0.447
6916.295 0.446
6949.061 0.445
6982.250 0.444
7015.574 0.443
7048.920 0.442
7082.580 0.441
7116.727 0.44
7151.421 0.439
7186.471 0.438
7221.755 0.437
7257.267 0.436
7293.030 0.435
7328.970 0.434
7365.128 0.433
7401.743 0.432
7438.612 0.431
7475.822 0.43
7513.586 0.429
7551.880 0.428
7590.132 0.427
7628.923 0.426
7668.099 0.425
7707.694 0.424
7747.716 0.423
7788.150 0.422
7829.081 0.421
7869.963 0.42
7910.777 0.419
7952.490 0.418
7995.225 0.417
8037.815 0.416
8080.558 0.415
8124.537 0.414
8169.072 0.413
8213.270 0.412
8257.136 0.411
8302.144 0.41
8349.369 0.409
8395.420 0.408
8441.832 0.407
8488.718 0.406
8536.175 0.405
8584.005 0.404
8632.231 0.403
8680.979 0.402
8730.196 0.401
8779.933 0.4
8830.214 0.399
8881.127 0.398
8932.618 0.397
8984.512 0.396
9036.945 0.395
9089.895 0.394
9143.153 0.393
9197.209 0.392
9252.326 0.391
9307.949 0.39
9363.793 0.389
9420.080 0.388
9477.220 0.387
9535.288 0.386
9593.821 0.385
9652.945 0.384
9712.901 0.383
9773.530 0.382
9834.608 0.381
9896.280 0.38
9959.071 0.379
10022.479 0.378
10086.684 0.377
10151.264 0.376
10217.072 0.375
10283.833 0.374
10350.960 0.373
10419.092 0.372
10487.999 0.371
10557.749 0.37
10628.801 0.369
10700.520 0.368
10772.727 0.367
10845.535 0.366
10919.127 0.365
10993.449 0.364
11069.069 0.363
11146.018 0.362
11223.463 0.361
11301.646 0.36
11381.158 0.359
11461.405 0.358
11542.640 0.357
11624.843 0.356
11708.047 0.355
11792.776 0.354
11877.995 0.353
11963.650 0.352
12050.550 0.351
12138.391 0.35
12227.286 0.349
12317.920 0.348
12409.351 0.347
12502.022 0.346
12596.146 0.345
12690.981 0.344
12786.402 0.343
12881.798 0.342
12977.302 0.341
13074.314 0.34
13172.831 0.339
13272.612 0.338
13374.458 0.337
13477.825 0.336
13581.750 0.335
13686.734 0.334
13793.430 0.333
13902.032 0.332
14012.316 0.331
14124.247 0.33
14237.896 0.329
14353.240 0.328
14470.286 0.327
14589.844 0.326
14711.215 0.325
14834.428 0.324
14959.617 0.323
15086.741 0.322
15215.445 0.321
15345.706 0.32
15479.360 0.319
15616.288 0.318
15755.719 0.317
15900.692 0.316
16046.325 0.315
16187.560 0.314
16330.587 0.313
16476.173 0.312
16628.437 0.311
16781.474 0.31
16929.481 0.309
17079.257 0.308
17231.766 0.307
17388.006 0.306
17547.770 0.305
17710.559 0.304
17876.975 0.303
18046.969 0.302
18220.341 0.301
18397.131 0.3
18576.990 0.299
18760.149 0.298
18946.606 0.297
19136.364 0.296
19329.624 0.295
19525.711 0.294
19725.358 0.293
19928.934 0.292
20135.873 0.291
20342.805 0.29
20553.338 0.289
20767.983 0.288
20986.986 0.287
21209.818 0.286
21436.340 0.285
21667.218 0.284
21902.366 0.283
22141.697 0.282
22385.277 0.281
22633.484 0.28
22886.415 0.279
23144.135 0.278
23406.475 0.277
23673.609 0.276
23945.998 0.275
24222.975 0.274
24505.050 0.273
24792.814 0.272
25085.778 0.271
25384.145 0.27
25688.061 0.269
25997.064 0.268
26311.579 0.267
26631.933 0.266
26958.198 0.265
27290.549 0.264
27629.284 0.263
27974.131 0.262
28324.846 0.261
28682.182 0.26
29046.247 0.259
29416.413 0.258
29793.345 0.257
30177.094 0.256
30567.635 0.255
30965.118 0.254
31369.060 0.253
31780.213 0.252
32199.061 0.251
32625.095 0.25
33058.778 0.249
33500.059 0.248
33948.000 0.247
34403.553 0.246
34866.314 0.245
35335.979 0.244
35812.961 0.243
36297.490 0.242
36790.752 0.241
37293.639 0.24
37805.291 0.239
38325.546 0.238
38854.612 0.237
39391.845 0.236
39937.719 0.235
40493.518 0.234
41059.340 0.233
41635.031 0.232
42220.675 0.231
42816.484 0.23
43423.013 0.229
44040.510 0.228
44668.978 0.227
45308.595 0.226
45959.575 0.225
46620.962 0.224
47293.964 0.223
47978.794 0.222
48675.667 0.221
49384.802 0.22
50106.421 0.219
50840.749 0.218
51588.014 0.217
52348.445 0.216
53122.279 0.215
53909.751 0.214
54711.102 0.213
55526.574 0.212
56356.416 0.211
57200.875 0.21
58060.204 0.209
58934.659 0.208
59824.499 0.207
60729.984 0.206
61651.380 0.205
62588.955 0.204
63542.980 0.203
64513.727 0.202
65501.475 0.201
66506.504 0.2
67529.096 0.199
68569.538 0.198
69628.119 0.197
70705.132 0.196
71800.872 0.195
72915.637 0.194
74049.730 0.193
75203.454 0.192
76377.117 0.191
77571.031 0.19
78785.509 0.189
80020.868 0.188
81277.427 0.187
82555.511 0.186
83855.445 0.185
85177.559 0.184
86522.184 0.183
87889.656 0.182
89280.314 0.181
90694.498 0.18
92132.554 0.179
93594.829 0.178
95081.674 0.177
96593.442 0.176
98130.491 0.175
