# TIME w/ LS370, calibrated against X107797
# Calibration data taken from 20181211 to 20181231
# Constrained by data from 0.272K to 294.7K, extrapolated elsewhere
# Calibration generated 2019-07-22 13:12:10.208856, verified monotonic
# R[Ohms] T[K]
37.565 325
37.620 324
37.675 323
37.732 322
37.789 321
37.848 320
37.907 319
37.967 318
38.029 317
38.091 316
38.155 315
38.219 314
38.284 313
38.351 312
38.418 311
38.486 310
38.555 309
38.626 308
38.697 307
38.769 306
38.842 305
38.916 304
38.991 303
39.067 302
39.144 301
39.222 300
39.301 299
39.381 298
39.462 297
39.544 296
39.629 295
39.807 294
39.813 293
39.842 292
39.918 291
39.997 290
40.083 289
40.173 288
40.250 287
40.330 286
40.461 285
40.595 284
40.693 283
40.803 282
40.903 281
40.999 280
41.104 279
41.212 278
41.306 277
41.398 276
41.512 275
41.627 274
41.724 273
41.834 272
41.943 271
42.049 270
42.162 269
42.271 268
42.378 267
42.485 266
42.591 265
42.707 264
42.821 263
42.927 262
43.045 261
43.172 260
43.284 259
43.391 258
43.511 257
43.634 256
43.766 255
43.878 254
43.986 253
44.118 252
44.261 251
44.385 250
44.499 249
44.633 248
44.758 247
44.885 246
45.017 245
45.138 244
45.270 243
45.412 242
45.549 241
45.690 240
45.833 239
45.950 238
46.086 237
46.218 236
46.406 235
46.605 234
46.748 233
46.838 232
46.906 231
47.063 230
47.236 229
47.382 228
47.510 227
47.668 226
47.837 225
47.986 224
48.137 223
48.287 222
48.447 221
48.605 220
48.748 219
48.902 218
49.062 217
49.231 216
49.397 215
49.563 214
49.728 213
49.909 212
50.085 211
50.251 210
50.422 209
50.596 208
50.782 207
50.952 206
51.112 205
51.298 204
51.483 203
51.666 202
51.846 201
52.030 200
52.210 199
52.403 198
52.600 197
52.784 196
52.986 195
53.182 194
53.367 193
53.561 192
53.753 191
53.956 190
54.168 189
54.362 188
54.569 187
54.789 186
54.995 185
55.196 184
55.406 183
55.637 182
55.863 181
56.081 180
56.305 179
56.532 178
56.756 177
56.975 176
57.220 175
57.449 174
57.677 173
57.932 172
58.159 171
58.389 170
58.642 169
58.886 168
59.119 167
59.381 166
59.646 165
59.897 164
60.155 163
60.422 162
60.689 161
60.938 160
61.213 159
61.482 158
61.753 157
62.042 156
62.304 155
62.586 154
62.888 153
63.165 152
63.444 151
63.747 150
64.051 149
64.345 148
64.648 147
64.968 146
65.286 145
65.579 144
65.887 143
66.214 142
66.535 141
66.849 140
67.169 139
67.509 138
67.851 137
68.197 136
68.543 135
68.884 134
69.245 133
69.578 132
69.913 131
70.307 130
70.695 129
71.061 128
71.447 127
71.845 126
72.206 125
72.582 124
72.990 123
73.398 122
73.801 121
74.202 120
74.643 119
75.056 118
75.472 117
75.922 116
76.365 115
76.813 114
77.234 113
77.700 112
78.184 111
78.671 110
79.091 109
79.555 108
80.111 107
80.579 106
81.018 105
81.484 104
82.030 103
82.618 102
83.142 101
83.667 100
84.191 99
84.736 98
85.322 97
85.892 96
86.458 95
87.055 94
87.629 93
88.222 92
88.889 91
89.500 90
90.138 89
90.796 88
91.458 87
92.151 86
92.819 85
93.476 84
94.175 83
94.918 82
95.624 81
96.352 80
97.125 79
97.905 78
98.690 77
99.459 76
100.261 75
101.123 74
102.033 73
102.919 72
103.761 71
104.627 70
104.829 69.8
105.031 69.6
105.219 69.4
105.406 69.2
105.576 69
105.733 68.8
105.957 68.6
106.106 68.4
106.267 68.2
106.509 68
106.681 67.8
106.879 67.6
107.098 67.4
107.328 67.2
107.531 67
107.753 66.8
107.895 66.6
108.065 66.4
108.292 66.2
108.522 66
108.621 65.8
108.804 65.6
109.052 65.4
109.189 65.2
109.444 65
109.638 64.8
109.855 64.6
110.086 64.4
110.313 64.2
110.506 64
110.686 63.8
110.881 63.6
111.084 63.4
111.309 63.2
111.533 63
111.774 62.8
112.008 62.6
112.195 62.4
112.414 62.2
112.644 62
112.847 61.8
113.067 61.6
113.292 61.4
113.467 61.2
113.694 61
113.948 60.8
114.166 60.6
114.391 60.4
114.638 60.2
114.839 60
115.047 59.8
115.261 59.6
115.531 59.4
115.805 59.2
116.025 59
116.235 58.8
116.465 58.6
116.722 58.4
116.924 58.2
117.117 58
117.392 57.8
117.661 57.6
117.907 57.4
118.157 57.2
118.392 57
118.689 56.8
118.938 56.6
119.132 56.4
119.426 56.2
119.578 56
119.882 55.8
120.143 55.6
120.426 55.4
120.679 55.2
120.929 55
121.215 54.8
121.501 54.6
121.656 54.4
121.977 54.2
122.210 54
122.509 53.8
122.798 53.6
123.067 53.4
123.326 53.2
123.599 53
123.892 52.8
124.067 52.6
124.384 52.4
124.654 52.2
124.889 52
125.248 51.8
125.543 51.6
125.782 51.4
126.094 51.2
126.361 51
126.629 50.8
126.901 50.6
127.206 50.4
127.547 50.2
127.884 50
128.147 49.8
128.373 49.6
128.717 49.4
129.018 49.2
129.309 49
129.623 48.8
129.917 48.6
130.291 48.4
130.619 48.2
130.904 48
131.239 47.8
131.553 47.6
131.846 47.4
132.171 47.2
132.575 47
132.862 46.8
133.137 46.6
133.426 46.4
133.776 46.2
134.084 46
134.425 45.8
134.768 45.6
135.103 45.4
135.421 45.2
135.749 45
136.117 44.8
136.488 44.6
136.853 44.4
137.201 44.2
137.573 44
137.911 43.8
138.294 43.6
138.682 43.4
138.957 43.2
139.351 43
139.789 42.8
140.203 42.6
140.583 42.4
140.929 42.2
141.280 42
141.629 41.8
141.984 41.6
142.411 41.4
142.843 41.2
143.245 41
143.622 40.8
143.998 40.6
144.365 40.4
144.771 40.2
145.209 40
145.586 39.8
146.014 39.6
146.430 39.4
146.847 39.2
147.265 39
147.686 38.8
148.111 38.6
148.539 38.4
148.963 38.2
149.383 38
149.814 37.8
150.261 37.6
150.722 37.4
151.192 37.2
151.586 37
152.027 36.8
152.492 36.6
152.935 36.4
153.398 36.2
153.870 36
154.343 35.8
154.824 35.6
155.316 35.4
155.824 35.2
156.305 35
156.781 34.8
157.256 34.6
157.725 34.4
158.200 34.2
158.747 34
159.293 33.8
159.833 33.6
160.341 33.4
160.834 33.2
161.333 33
161.875 32.8
162.417 32.6
162.955 32.4
163.508 32.2
164.066 32
164.624 31.8
165.262 31.6
165.736 31.4
166.284 31.2
166.902 31
167.491 30.8
168.080 30.6
168.669 30.4
169.269 30.2
169.868 30
170.076 29.9
170.316 29.8
170.633 29.7
170.948 29.6
171.257 29.5
171.566 29.4
171.875 29.3
172.213 29.2
172.562 29.1
172.911 29
173.242 28.9
173.544 28.8
173.847 28.7
174.149 28.6
174.481 28.5
174.820 28.4
175.158 28.3
175.493 28.2
175.810 28.1
176.127 28
176.444 27.9
176.777 27.8
177.118 27.7
177.459 27.6
177.800 27.5
178.140 27.4
178.478 27.3
178.817 27.2
179.157 27.1
179.521 27
179.886 26.9
180.250 26.8
180.609 26.7
180.952 26.6
181.294 26.5
181.637 26.4
181.987 26.3
182.351 26.2
182.716 26.1
183.080 26
183.412 25.9
183.704 25.8
183.996 25.7
184.417 25.6
184.871 25.5
185.263 25.4
185.655 25.3
186.046 25.2
186.425 25.1
186.789 25
187.154 24.9
187.518 24.8
187.892 24.7
188.290 24.6
188.689 24.5
189.087 24.4
189.487 24.3
189.894 24.2
190.301 24.1
190.709 24
191.117 23.9
191.537 23.8
191.956 23.7
192.376 23.6
192.796 23.5
193.233 23.4
193.671 23.3
194.109 23.2
194.548 23.1
194.904 23
195.335 22.9
195.793 22.8
196.250 22.7
196.700 22.6
197.143 22.5
197.586 22.4
198.028 22.3
198.471 22.2
198.919 22.1
199.367 22
199.815 21.9
200.263 21.8
200.755 21.7
201.268 21.6
201.781 21.5
202.293 21.4
202.794 21.3
203.235 21.2
203.677 21.1
204.119 21
204.560 20.9
205.090 20.8
205.643 20.7
206.197 20.6
206.751 20.5
207.290 20.4
207.794 20.3
208.299 20.2
208.803 20.1
209.307 20
209.829 19.9
210.353 19.8
210.878 19.7
211.402 19.6
211.821 19.5
211.992 19.4
212.703 19.3
213.414 19.2
214.124 19.1
214.742 19
215.280 18.9
215.817 18.8
216.354 18.7
216.892 18.6
217.483 18.5
218.078 18.4
218.674 18.3
219.269 18.2
219.873 18.1
220.501 18
221.128 17.9
221.755 17.8
222.382 17.7
223.049 17.6
223.739 17.5
224.428 17.4
225.118 17.3
225.807 17.2
226.449 17.1
227.087 17
227.725 16.9
228.362 16.8
229.003 16.7
229.648 16.6
230.294 16.5
230.940 16.4
231.585 16.3
232.342 16.2
233.149 16.1
233.956 16
234.763 15.9
235.550 15.8
236.257 15.7
236.964 15.6
237.671 15.5
238.378 15.4
239.129 15.3
239.902 15.2
240.676 15.1
241.449 15
242.230 14.9
243.106 14.8
243.983 14.7
244.860 14.6
245.736 14.5
246.590 14.4
247.435 14.3
248.280 14.2
249.125 14.1
250.002 14
250.919 13.9
251.836 13.8
252.754 13.7
253.673 13.6
254.615 13.5
255.557 13.4
256.499 13.3
257.441 13.2
258.416 13.1
259.394 13
260.371 12.9
261.351 12.8
262.440 12.7
263.533 12.6
264.625 12.5
265.714 12.4
266.791 12.3
267.868 12.2
268.946 12.1
270.063 12
271.216 11.9
272.369 11.8
273.524 11.7
274.748 11.6
275.975 11.5
277.202 11.4
278.445 11.3
279.695 11.2
280.946 11.1
282.233 11
283.555 10.9
284.876 10.8
286.241 10.7
287.646 10.6
289.051 10.5
290.560 10.4
292.109 10.3
293.610 10.2
294.934 10.1
296.258 10
297.748 9.9
299.301 9.8
300.973 9.7
302.761 9.6
304.421 9.5
305.986 9.4
307.694 9.3
309.471 9.2
311.358 9.1
313.181 9
314.953 8.9
316.792 8.8
318.788 8.7
320.993 8.6
322.757 8.5
324.688 8.4
326.800 8.3
328.935 8.2
331.071 8.1
333.298 8
333.774 7.98
334.267 7.96
334.765 7.94
335.277 7.92
335.751 7.9
336.178 7.88
336.617 7.86
337.085 7.84
337.560 7.82
338.059 7.8
338.543 7.78
338.908 7.76
339.337 7.74
340.118 7.72
340.808 7.7
341.179 7.68
341.564 7.66
341.972 7.64
342.446 7.62
342.959 7.6
343.443 7.58
343.881 7.56
344.246 7.54
344.627 7.52
345.160 7.5
345.777 7.48
346.289 7.46
346.736 7.44
347.428 7.42
348.112 7.4
348.505 7.38
348.924 7.36
349.454 7.34
350.021 7.32
350.652 7.3
351.275 7.28
351.692 7.26
352.109 7.24
352.767 7.22
353.413 7.2
353.940 7.18
354.474 7.16
354.994 7.14
355.490 7.12
356.059 7.1
356.646 7.08
357.147 7.06
357.738 7.04
358.338 7.02
358.863 7
359.463 6.98
360.025 6.96
360.618 6.94
361.219 6.92
361.784 6.9
362.360 6.88
362.857 6.86
363.474 6.84
364.057 6.82
364.689 6.8
365.318 6.78
365.930 6.76
366.659 6.74
367.163 6.72
367.726 6.7
368.479 6.68
369.096 6.66
369.699 6.64
370.354 6.62
371.062 6.6
371.686 6.58
372.280 6.56
373.005 6.54
373.605 6.52
374.188 6.5
374.850 6.48
375.546 6.46
376.218 6.44
376.885 6.42
377.493 6.4
378.170 6.38
378.944 6.36
379.671 6.34
380.148 6.32
380.437 6.3
380.795 6.28
381.408 6.26
382.241 6.24
383.056 6.22
383.872 6.2
384.687 6.18
385.503 6.16
386.319 6.14
387.134 6.12
387.942 6.1
388.746 6.08
389.550 6.06
390.355 6.04
391.159 6.02
391.963 6
392.767 5.98
393.571 5.96
394.376 5.94
395.180 5.92
395.984 5.9
396.789 5.88
397.590 5.86
398.415 5.84
399.276 5.82
400.143 5.8
401.007 5.78
401.872 5.76
402.737 5.74
403.602 5.72
404.467 5.7
405.332 5.68
406.197 5.66
407.061 5.64
407.926 5.62
408.791 5.6
409.655 5.58
410.527 5.56
411.406 5.54
412.285 5.52
413.164 5.5
414.043 5.48
414.922 5.46
415.801 5.44
416.680 5.42
417.559 5.4
418.438 5.38
419.317 5.36
420.197 5.34
421.072 5.32
421.960 5.3
422.910 5.28
423.900 5.26
424.883 5.24
425.867 5.22
426.852 5.2
427.836 5.18
428.820 5.16
429.804 5.14
430.789 5.12
431.773 5.1
432.758 5.08
433.739 5.06
434.727 5.04
435.822 5.02
437.008 5
438.187 4.98
439.366 4.96
440.545 4.94
441.724 4.92
442.903 4.9
444.082 4.88
445.261 4.86
446.441 4.84
447.617 4.82
448.803 4.8
450.013 4.78
451.234 4.76
452.452 4.74
453.670 4.72
454.889 4.7
456.107 4.68
457.326 4.66
458.544 4.64
459.764 4.62
460.975 4.6
462.214 4.58
463.546 4.56
464.927 4.54
466.297 4.52
467.669 4.5
469.041 4.48
470.413 4.46
471.785 4.44
473.157 4.42
474.529 4.4
475.899 4.38
477.284 4.36
478.691 4.34
480.102 4.32
481.511 4.3
482.921 4.28
484.331 4.26
485.740 4.24
487.150 4.22
488.562 4.2
489.962 4.18
491.394 4.16
492.959 4.14
494.603 4.12
496.231 4.1
497.862 4.08
499.493 4.06
501.123 4.04
502.754 4.02
504.384 4
506.014 3.98
507.701 3.96
509.445 3.94
511.187 3.92
512.929 3.9
514.670 3.88
516.412 3.86
518.159 3.84
519.879 3.82
521.698 3.8
523.735 3.78
525.851 3.76
527.943 3.74
530.039 3.72
532.136 3.7
534.233 3.68
536.326 3.66
538.427 3.64
540.605 3.62
542.847 3.6
545.083 3.58
547.319 3.56
549.556 3.54
551.792 3.52
554.029 3.5
556.264 3.48
558.505 3.46
560.755 3.44
563.006 3.42
565.256 3.4
567.506 3.38
569.757 3.36
572.013 3.34
574.237 3.32
576.539 3.3
579.294 3.28
582.362 3.26
585.382 3.24
588.409 3.22
591.436 3.2
594.457 3.18
597.508 3.16
600.429 3.14
603.113 3.12
605.731 3.1
608.372 3.08
611.011 3.06
613.643 3.04
616.260 3.02
618.863 3
621.470 2.98
624.443 2.96
627.771 2.94
631.095 2.92
634.399 2.9
637.766 2.88
641.261 2.86
644.800 2.84
648.317 2.82
651.877 2.8
655.506 2.78
659.152 2.76
662.792 2.74
666.442 2.72
670.085 2.7
673.754 2.68
677.657 2.66
681.702 2.64
685.838 2.62
690.269 2.6
694.794 2.58
699.063 2.56
703.160 2.54
707.565 2.52
712.274 2.5
716.963 2.48
721.683 2.46
726.524 2.44
731.299 2.42
735.815 2.4
740.836 2.38
746.421 2.36
751.829 2.34
757.174 2.32
762.345 2.3
767.605 2.28
773.454 2.26
779.447 2.24
785.427 2.22
791.355 2.2
796.836 2.18
802.188 2.16
808.614 2.14
815.920 2.12
823.538 2.1
831.262 2.08
838.198 2.06
844.599 2.04
850.288 2.02
857.638 2
862.395 1.99
867.328 1.98
871.863 1.97
876.095 1.96
880.429 1.95
884.828 1.94
889.257 1.93
893.555 1.92
897.592 1.91
901.527 1.9
905.539 1.89
909.530 1.88
913.483 1.87
917.549 1.86
921.841 1.85
926.399 1.84
931.169 1.83
936.029 1.82
940.863 1.81
945.628 1.8
950.405 1.79
955.217 1.78
960.117 1.77
965.112 1.76
970.137 1.75
975.220 1.74
980.425 1.73
985.824 1.72
991.401 1.71
997.114 1.7
1002.936 1.69
1008.854 1.68
1014.924 1.67
1021.133 1.66
1027.390 1.65
1033.621 1.64
1039.835 1.63
1046.065 1.62
1052.228 1.61
1058.407 1.6
1064.740 1.59
1071.325 1.58
1078.177 1.57
1085.214 1.56
1092.303 1.55
1099.335 1.54
1106.344 1.53
1113.377 1.52
1120.550 1.51
1127.315 1.5
1133.957 1.49
1141.363 1.48
1150.316 1.47
1161.083 1.46
1173.220 1.45
1186.008 1.44
1198.995 1.43
1211.465 1.42
1222.975 1.41
1232.684 1.4
1240.631 1.39
1247.523 1.38
1254.368 1.37
1261.926 1.36
1269.635 1.35
1277.059 1.34
1284.665 1.33
1293.055 1.32
1302.611 1.31
1313.199 1.3
1324.471 1.29
1335.847 1.28
1347.046 1.27
1358.546 1.26
1370.501 1.25
1383.196 1.24
1396.098 1.23
1409.246 1.22
1422.596 1.21
1436.189 1.2
1450.172 1.19
1464.293 1.18
1479.061 1.17
1493.883 1.16
1509.169 1.15
1524.924 1.14
1540.963 1.13
1557.060 1.12
1573.375 1.11
1590.428 1.1
1608.391 1.09
1627.056 1.08
1646.191 1.07
1664.765 1.06
1683.237 1.05
1702.252 1.04
1722.992 1.03
1745.460 1.02
1767.668 1.01
1789.868 1
1811.996 0.99
1835.357 0.98
1860.422 0.97
1886.400 0.96
1912.786 0.95
1939.291 0.94
1966.886 0.93
1994.647 0.92
2022.805 0.91
2053.957 0.9
2084.850 0.89
2116.576 0.88
2150.653 0.87
2185.890 0.86
2219.654 0.85
2257.914 0.84
2299.509 0.83
2340.471 0.82
2382.126 0.81
2425.456 0.8
2429.909 0.799
2434.324 0.798
2438.626 0.797
2442.899 0.796
2447.139 0.795
2451.344 0.794
2455.538 0.793
2459.729 0.792
2463.921 0.791
2468.093 0.79
2472.251 0.789
2476.404 0.788
2480.538 0.787
2484.657 0.786
2488.777 0.785
2492.892 0.784
2497.036 0.783
2501.219 0.782
2505.441 0.781
2509.711 0.78
2514.033 0.779
2518.420 0.778
2522.885 0.777
2527.414 0.776
2531.996 0.775
2536.744 0.774
2541.590 0.773
2546.510 0.772
2551.498 0.771
2556.510 0.77
2561.544 0.769
2566.590 0.768
2571.621 0.767
2576.639 0.766
2581.686 0.765
2586.676 0.764
2591.623 0.763
2596.591 0.762
2601.569 0.761
2606.561 0.76
2611.573 0.759
2616.630 0.758
2621.733 0.757
2626.870 0.756
2632.055 0.755
2637.326 0.754
2642.630 0.753
2647.985 0.752
2653.398 0.751
2658.832 0.75
2664.312 0.749
2669.814 0.748
2675.335 0.747
2680.898 0.746
2686.436 0.745
2691.991 0.744
2697.641 0.743
2703.361 0.742
2709.085 0.741
2714.840 0.74
2720.601 0.739
2726.363 0.738
2732.207 0.737
2738.104 0.736
2743.965 0.735
2749.839 0.734
2755.765 0.733
2761.744 0.732
2767.686 0.731
2773.643 0.73
2779.631 0.729
2786.124 0.728
2792.435 0.727
2798.079 0.726
2803.789 0.725
2809.511 0.724
2815.250 0.723
2821.015 0.722
2826.785 0.721
2832.604 0.72
2838.569 0.719
2844.572 0.718
2850.483 0.717
2856.425 0.716
2862.246 0.715
2868.258 0.714
2874.524 0.713
2880.641 0.712
2886.739 0.711
2892.723 0.71
2898.684 0.709
2904.683 0.708
2910.731 0.707
2918.221 0.706
2925.311 0.705
2931.908 0.704
2938.490 0.703
2945.113 0.702
2951.802 0.701
2958.557 0.7
2965.321 0.699
2972.081 0.698
2978.818 0.697
2985.563 0.696
2992.292 0.695
2999.219 0.694
3006.186 0.693
3013.162 0.692
3020.148 0.691
3027.149 0.69
3034.180 0.689
3041.233 0.688
3048.304 0.687
3055.401 0.686
3062.523 0.685
3069.659 0.684
3076.822 0.683
3083.990 0.682
3089.752 0.681
3096.793 0.68
3104.387 0.679
3112.044 0.678
3119.834 0.677
3127.549 0.676
3134.989 0.675
3142.576 0.674
3150.169 0.673
3157.779 0.672
3165.267 0.671
3172.825 0.67
3180.460 0.669
3188.146 0.668
3195.866 0.667
3203.431 0.666
3210.949 0.665
3218.392 0.664
3225.817 0.663
3233.307 0.662
3240.854 0.661
3248.465 0.66
3256.096 0.659
3263.742 0.658
3271.417 0.657
3279.120 0.656
3286.873 0.655
3294.672 0.654
3303.783 0.653
3313.305 0.652
3320.461 0.651
3327.253 0.65
3334.456 0.649
3341.959 0.648
3349.648 0.647
3357.523 0.646
3365.524 0.645
3373.693 0.644
3382.000 0.643
3390.397 0.642
3398.817 0.641
3407.102 0.64
3415.702 0.639
3424.655 0.638
3433.970 0.637
3443.409 0.636
3452.870 0.635
3462.403 0.634
3471.962 0.633
3481.517 0.632
3491.190 0.631
3501.000 0.63
3510.912 0.629
3520.914 0.628
3530.315 0.627
3539.579 0.626
3549.418 0.625
3559.323 0.624
3569.423 0.623
3579.573 0.622
3589.517 0.621
3599.555 0.62
3609.641 0.619
3619.756 0.618
3630.249 0.617
3640.376 0.616
3650.551 0.615
3660.977 0.614
3671.510 0.613
3681.980 0.612
3693.351 0.611
3704.574 0.61
3714.616 0.609
3724.781 0.608
3735.507 0.607
3746.756 0.606
3756.818 0.605
3766.984 0.604
3777.146 0.603
3787.482 0.602
3798.068 0.601
3808.829 0.6
3819.699 0.599
3830.649 0.598
3841.661 0.597
3852.759 0.596
3864.030 0.595
3875.515 0.594
3886.971 0.593
3898.436 0.592
3909.963 0.591
3921.534 0.59
3934.602 0.589
3948.167 0.588
3959.192 0.587
3970.497 0.586
3981.129 0.585
3991.757 0.584
4002.542 0.583
4013.418 0.582
4024.271 0.581
4037.026 0.58
4049.625 0.579
4062.567 0.578
4075.780 0.577
4088.324 0.576
4100.489 0.575
4113.652 0.574
4127.483 0.573
4140.941 0.572
4153.268 0.571
4165.987 0.57
4178.833 0.569
4191.846 0.568
4204.837 0.567
4217.962 0.566
4231.583 0.565
4245.477 0.564
4259.614 0.563
4273.905 0.562
4288.398 0.561
4303.078 0.56
4317.871 0.559
4332.869 0.558
4348.064 0.557
4363.353 0.556
4378.832 0.555
4394.408 0.554
4409.982 0.553
4425.191 0.552
4438.297 0.551
4452.264 0.55
4466.513 0.549
4482.224 0.548
4497.781 0.547
4513.321 0.546
4528.880 0.545
4543.853 0.544
4558.271 0.543
4572.712 0.542
4588.748 0.541
4605.704 0.54
4622.722 0.539
4638.726 0.538
4654.166 0.537
4669.797 0.536
4685.856 0.535
4702.017 0.534
4718.208 0.533
4734.314 0.532
4750.543 0.531
4766.918 0.53
4783.199 0.529
4799.601 0.528
4816.189 0.527
4832.774 0.526
4849.494 0.525
4866.290 0.524
4883.048 0.523
4899.662 0.522
4916.651 0.521
4934.485 0.52
4952.298 0.519
4969.201 0.518
4986.331 0.517
5003.334 0.516
5020.969 0.515
5038.709 0.514
5056.710 0.513
5075.004 0.512
5093.630 0.511
5111.336 0.51
5128.753 0.509
5147.367 0.508
5166.258 0.507
5184.718 0.506
5202.524 0.505
5221.579 0.504
5240.907 0.503
5260.942 0.502
5281.470 0.501
5301.757 0.5
5321.862 0.499
5342.316 0.498
5363.038 0.497
5382.716 0.496
5402.555 0.495
5425.377 0.494
5448.279 0.493
5471.323 0.492
5494.715 0.491
5518.440 0.49
5542.409 0.489
5564.811 0.488
5585.909 0.487
5608.672 0.486
5631.501 0.485
5655.192 0.484
5679.199 0.483
5703.353 0.482
5727.709 0.481
5752.511 0.48
5777.819 0.479
5803.167 0.478
5828.078 0.477
5852.657 0.476
5877.745 0.475
5903.466 0.474
5928.646 0.473
5953.150 0.472
5977.680 0.471
6003.339 0.47
6029.126 0.469
6054.839 0.468
6080.651 0.467
6106.966 0.466
6133.196 0.465
6159.778 0.464
6186.907 0.463
6214.067 0.462
6241.437 0.461
6269.138 0.46
6297.023 0.459
6324.583 0.458
6352.702 0.457
6381.508 0.456
6410.686 0.455
6439.843 0.454
6469.187 0.453
6498.951 0.452
6527.464 0.451
6556.407 0.45
6586.994 0.449
6618.611 0.448
6649.125 0.447
6679.808 0.446
6710.651 0.445
6741.613 0.444
6773.509 0.443
6806.687 0.442
6840.828 0.441
6874.051 0.44
6906.444 0.439
6938.816 0.438
6972.260 0.437
7006.714 0.436
7041.517 0.435
7076.304 0.434
7111.250 0.433
7146.618 0.432
7182.374 0.431
7218.541 0.43
7254.995 0.429
7291.973 0.428
7329.267 0.427
7366.806 0.426
7404.777 0.425
7443.048 0.424
7481.783 0.423
7521.056 0.422
7560.884 0.421
7600.838 0.42
7640.375 0.419
7679.967 0.418
7720.770 0.417
7762.047 0.416
7803.739 0.415
7845.853 0.414
7888.527 0.413
7931.650 0.412
7975.183 0.411
8019.028 0.41
8062.996 0.409
8107.434 0.408
8152.562 0.407
8198.040 0.406
8243.907 0.405
8290.180 0.404
8336.906 0.403
8384.053 0.402
8431.242 0.401
8478.369 0.4
8526.114 0.399
8574.733 0.398
8623.789 0.397
8673.163 0.396
8724.637 0.395
8777.949 0.394
8829.746 0.393
8882.250 0.392
8935.242 0.391
8988.650 0.39
9042.826 0.389
9097.702 0.388
9153.120 0.387
9209.107 0.386
9266.104 0.385
9323.442 0.384
9381.120 0.383
9439.327 0.382
9498.223 0.381
9558.272 0.38
9619.215 0.379
9680.584 0.378
9742.547 0.377
9805.218 0.376
9868.575 0.375
9932.748 0.374
9997.572 0.373
10063.065 0.372
10128.799 0.371
10195.299 0.37
10262.784 0.369
10330.953 0.368
10400.138 0.367
10469.991 0.366
10540.513 0.365
10612.414 0.364
10685.058 0.363
10758.132 0.362
10832.064 0.361
10906.889 0.36
10982.562 0.359
11059.262 0.358
11137.452 0.357
11216.191 0.356
11295.514 0.355
11376.013 0.354
11457.857 0.353
11540.695 0.352
11624.612 0.351
11709.621 0.35
11795.611 0.349
11882.375 0.348
11970.428 0.347
12059.692 0.346
12150.193 0.345
12241.795 0.344
12334.308 0.343
12428.032 0.342
12523.166 0.341
12619.244 0.34
12716.380 0.339
12814.928 0.338
12914.873 0.337
13016.091 0.336
13118.617 0.335
13222.446 0.334
13327.719 0.333
13434.671 0.332
13543.077 0.331
13652.866 0.33
13764.036 0.329
13876.816 0.328
13990.963 0.327
14106.782 0.326
14224.367 0.325
14343.891 0.324
14464.690 0.323
14587.192 0.322
14709.826 0.321
14834.443 0.32
14961.004 0.319
15089.666 0.318
15220.466 0.317
15353.504 0.316
15488.734 0.315
15626.170 0.314
15765.802 0.313
15907.713 0.312
16051.923 0.311
16198.393 0.31
16347.225 0.309
16498.682 0.308
16652.692 0.307
16809.020 0.306
16967.870 0.305
17129.301 0.304
17293.436 0.303
17460.208 0.302
17629.658 0.301
17801.852 0.3
17976.849 0.299
18154.634 0.298
18335.115 0.297
18518.315 0.296
18704.493 0.295
18893.772 0.294
19085.909 0.293
19280.948 0.292
19478.893 0.291
19680.007 0.29
19884.387 0.289
20091.695 0.288
20302.090 0.287
20515.661 0.286
20732.381 0.285
20952.339 0.284
21175.581 0.283
21402.363 0.282
21632.721 0.281
21866.652 0.28
22103.701 0.279
22343.971 0.278
22587.950 0.277
22835.553 0.276
23086.740 0.275
23341.601 0.274
23600.010 0.273
23862.139 0.272
24128.132 0.271
24398.297 0.27
24672.380 0.269
24950.158 0.268
25231.846 0.267
25517.487 0.266
25807.412 0.265
26101.570 0.264
26399.846 0.263
26702.342 0.262
27009.212 0.261
27320.590 0.26
27636.587 0.259
27957.147 0.258
28282.222 0.257
28612.192 0.256
28947.405 0.255
29287.729 0.254
29632.835 0.253
29982.797 0.252
30337.965 0.251
30698.306 0.25
31063.885 0.249
31435.270 0.248
31812.305 0.247
32194.810 0.246
32582.999 0.245
32976.925 0.244
33376.821 0.243
33783.071 0.242
34195.480 0.241
34613.826 0.24
35038.684 0.239
35470.130 0.238
35907.999 0.237
36352.572 0.236
36804.025 0.235
37262.450 0.234
37727.849 0.233
38200.313 0.232
38679.825 0.231
39166.333 0.23
39660.232 0.229
40161.580 0.228
40670.209 0.227
41186.468 0.226
41710.218 0.225
42241.111 0.224
42779.885 0.223
43326.660 0.222
43881.560 0.221
44444.708 0.22
45016.230 0.219
45596.255 0.218
46184.913 0.217
46782.336 0.216
47388.659 0.215
48004.018 0.214
48628.551 0.213
49262.398 0.212
49905.703 0.211
50558.608 0.21
51221.261 0.209
51893.809 0.208
52576.404 0.207
53269.197 0.206
53972.342 0.205
54685.997 0.204
55410.318 0.203
56145.468 0.202
56891.607 0.201
57648.901 0.2
58417.516 0.199
59197.619 0.198
59989.382 0.197
60792.977 0.196
61608.577 0.195
62436.360 0.194
63276.504 0.193
64129.189 0.192
64994.598 0.191
65872.915 0.19
66764.325 0.189
67669.019 0.188
68587.185 0.187
69519.017 0.186
70464.709 0.185
71424.457 0.184
72398.460 0.183
73386.917 0.182
74390.032 0.181
75408.009 0.18
76441.055 0.179
77489.376 0.178
78553.185 0.177
79632.694 0.176
80728.116 0.175
