# TIME w/ LS370, calibrated against X107797
# Calibration data taken from 20181211 to 20181231
# Constrained by data from 0.279K to 292.1K, extrapolated elsewhere
# Calibration generated 2019-07-22 13:11:29.094556, verified monotonic
# R[Ohms] T[K]
1000.716 290
1000.758 285
1000.820 280
1000.846 275
1000.860 270
1000.964 265
1001.185 260
1001.328 255
1001.498 250
1001.805 245
1002.039 240
1002.259 235
1002.567 230
1002.942 225
1003.371 220
1003.727 215
1004.094 210
1004.557 205
1005.087 200
1005.606 195
1006.156 190
1006.772 185
1007.488 180
1008.096 175
1008.721 170
1009.462 165
1010.137 160
1010.958 155
1011.737 150
1012.494 145
1013.478 140
1014.458 135
1015.435 130
1016.505 125
1017.475 120
1018.490 115
1019.636 110
1020.781 105
1022.030 100
1023.400 95
1024.689 90
1026.040 85
1027.603 80
1029.362 75
1031.422 70
1031.690 69
1032.024 68
1032.563 67
1032.904 66
1033.311 65
1033.750 64
1034.043 63
1034.406 62
1034.874 61
1035.447 60
1036.211 59
1036.783 58
1037.094 57
1037.687 56
1038.335 55
1038.833 54
1039.523 53
1040.136 52
1040.645 51
1041.457 50
1042.392 49
1042.914 48
1043.671 47
1044.551 46
1045.274 45
1046.211 44
1047.200 43
1048.042 42
1049.099 41
1050.272 40
1051.235 39
1052.402 38
1053.499 37
1054.592 36
1056.203 35
1057.767 34
1059.149 33
1060.679 32
1062.270 31
1063.815 30
1064.801 29.5
1065.948 29
1067.004 28.5
1067.916 28
1068.938 27.5
1070.061 27
1071.146 26.5
1072.244 26
1073.758 25.5
1075.199 25
1076.153 24.5
1078.047 24
1078.920 23.5
1080.246 23
1082.356 22.5
1084.122 22
1085.803 21.5
1087.913 21
1089.633 20.5
1091.204 20
1093.550 19.5
1096.040 19
1098.262 18.5
1100.529 18
1102.843 17.5
1105.531 17
1108.635 16.5
1111.408 16
1114.776 15.5
1117.963 15
1121.910 14.5
1124.698 14
1128.136 13.5
1134.614 13
1139.558 12.5
1144.995 12
1150.916 11.5
1157.067 11
1163.829 10.5
1171.370 10
1179.549 9.5
1188.544 9
1198.544 8.5
1210.054 8
1212.347 7.9
1214.414 7.8
1216.919 7.7
1219.927 7.6
1222.590 7.5
1225.175 7.4
1228.095 7.3
1231.084 7.2
1234.061 7.1
1237.131 7
1240.092 6.9
1243.508 6.8
1246.991 6.7
1250.213 6.6
1253.870 6.5
1257.646 6.4
1260.500 6.3
1263.910 6.2
1268.324 6.1
1272.616 6
1276.902 5.9
1281.341 5.8
1286.181 5.7
1291.019 5.6
1296.101 5.5
1301.411 5.4
1306.720 5.3
1312.188 5.2
1317.698 5.1
1323.303 5
1329.392 4.9
1335.470 4.8
1342.119 4.7
1348.861 4.6
1356.011 4.5
1363.389 4.4
1371.009 4.3
1378.857 4.2
1387.131 4.1
1395.940 4
1405.601 3.9
1415.843 3.8
1426.585 3.7
1437.538 3.6
1449.076 3.5
1460.815 3.4
1472.696 3.3
1487.960 3.2
1503.348 3.1
1516.765 3
1532.350 2.9
1550.081 2.8
1568.537 2.7
1588.236 2.6
1610.227 2.5
1634.146 2.4
1659.507 2.3
1683.463 2.2
1713.688 2.1
1750.716 2
1767.148 1.95
1783.615 1.9
1801.785 1.85
1823.253 1.8
1845.294 1.75
1867.668 1.7
1891.931 1.65
1917.113 1.6
1944.248 1.55
1971.548 1.5
2008.601 1.45
2053.105 1.4
2084.072 1.35
2114.114 1.3
2155.705 1.25
2202.189 1.2
2250.411 1.15
2305.057 1.1
2359.400 1.05
2422.620 1
2499.429 0.95
2583.281 0.9
2667.712 0.85
2772.085 0.8
2783.806 0.795
2795.174 0.79
2806.288 0.785
2817.245 0.78
2828.412 0.775
2839.765 0.77
2851.334 0.765
2863.316 0.76
2875.451 0.755
2887.886 0.75
2900.533 0.745
2913.285 0.74
2926.278 0.735
2939.241 0.73
2952.356 0.725
2965.625 0.72
2979.212 0.715
2992.869 0.71
3006.449 0.705
3020.437 0.7
3034.911 0.695
3049.349 0.69
3064.043 0.685
3079.034 0.68
3094.115 0.675
3109.525 0.67
3125.806 0.665
3141.608 0.66
3157.400 0.655
3173.053 0.65
3189.111 0.645
3205.369 0.64
3222.250 0.635
3239.963 0.63
3258.210 0.625
3276.807 0.62
3295.866 0.615
3315.192 0.61
3334.842 0.605
3355.292 0.6
3376.098 0.595
3396.738 0.59
3417.256 0.585
3437.486 0.58
3457.888 0.575
3479.751 0.57
3501.864 0.565
3523.898 0.56
3546.444 0.555
3570.381 0.55
3594.616 0.545
3618.511 0.54
3643.505 0.535
3669.136 0.53
3695.124 0.525
3721.202 0.52
3747.542 0.515
3774.266 0.51
3801.949 0.505
3830.866 0.5
3860.682 0.495
3890.702 0.49
3921.407 0.485
3952.854 0.48
3985.416 0.475
4018.344 0.47
4051.406 0.465
4085.116 0.46
4119.993 0.455
4156.257 0.45
4192.853 0.445
4230.125 0.44
4268.958 0.435
4309.573 0.43
4351.279 0.425
4394.621 0.42
4438.381 0.415
4483.261 0.41
4529.463 0.405
4576.591 0.4
4624.515 0.395
4673.794 0.39
4724.802 0.385
4777.723 0.38
4831.774 0.375
4887.282 0.37
4945.060 0.365
5005.018 0.36
5066.753 0.355
5131.303 0.35
5197.468 0.345
5265.636 0.34
5336.701 0.335
5410.030 0.33
5486.528 0.325
5566.073 0.32
5648.683 0.315
5734.894 0.31
5824.059 0.305
5916.373 0.3
6011.992 0.295
6111.196 0.29
6214.254 0.285
6321.052 0.28
6431.459 0.275
6545.948 0.27
6664.883 0.265
6787.711 0.26
6915.254 0.255
7047.716 0.25
7185.101 0.245
7327.875 0.24
7475.958 0.235
7629.096 0.23
7788.102 0.225
7952.980 0.22
8123.966 0.215
8301.288 0.21
8485.180 0.205
8675.887 0.2
8873.658 0.195
9078.754 0.19
9291.439 0.185
9511.990 0.18
9740.688 0.175
