# TIME w/ LS370, calibrated against X107797
# Calibration data taken from 20160302 to 20181030
# Constrained by data from 0.208K to 292.3K, extrapolated elsewhere
# Calibration generated 2019-07-23 15:18:49.882516, verified monotonic
# R[Ohms] T[K]
50.953 325
51.027 324
51.101 323
51.176 322
51.253 321
51.330 320
51.409 319
51.489 318
51.569 317
51.651 316
51.734 315
51.818 314
51.903 313
51.989 312
52.076 311
52.164 310
52.253 309
52.344 308
52.435 307
52.527 306
52.621 305
52.715 304
52.811 303
52.907 302
53.005 301
53.104 300
53.204 299
53.304 298
53.406 297
53.509 296
53.613 295
53.718 294
53.824 293
53.879 292
53.989 291
54.112 290
54.231 289
54.353 288
54.474 287
54.595 286
54.716 285
54.839 284
54.961 283
55.084 282
55.209 281
55.334 280
55.462 279
55.590 278
55.719 277
55.846 276
55.972 275
56.102 274
56.235 273
56.369 272
56.442 271
56.510 270
56.645 269
56.788 268
56.924 267
57.056 266
57.193 265
57.335 264
57.474 263
57.608 262
57.758 261
57.906 260
58.039 259
58.187 258
58.337 257
58.487 256
58.626 255
58.779 254
58.934 253
59.073 252
59.229 251
59.391 250
59.541 249
59.696 248
59.852 247
60.006 246
60.166 245
60.324 244
60.489 243
60.640 242
60.800 241
60.977 240
61.145 239
61.316 238
61.474 237
61.637 236
61.805 235
61.976 234
62.144 233
62.309 232
62.480 231
62.657 230
62.836 229
63.004 228
63.179 227
63.363 226
63.546 225
63.723 224
63.900 223
64.060 222
64.203 221
64.376 220
64.564 219
64.752 218
64.939 217
65.130 216
65.327 215
65.519 214
65.716 213
65.907 212
66.101 211
66.305 210
66.502 209
66.697 208
66.907 207
67.117 206
67.316 205
67.526 204
67.748 203
67.951 202
68.155 201
68.374 200
68.590 199
68.815 198
69.031 197
69.242 196
69.465 195
69.688 194
69.920 193
70.151 192
70.376 191
70.603 190
70.838 189
71.073 188
71.304 187
71.544 186
71.783 185
72.028 184
72.277 183
72.519 182
72.774 181
73.026 180
73.272 179
73.525 178
73.781 177
74.044 176
74.300 175
74.565 174
74.836 173
75.105 172
75.385 171
75.651 170
75.925 169
76.205 168
76.469 167
76.759 166
77.064 165
77.333 164
77.604 163
77.900 162
78.199 161
78.493 160
78.778 159
79.079 158
79.405 157
79.726 156
80.028 155
80.315 154
80.614 153
80.942 152
81.267 151
81.604 150
81.938 149
82.267 148
82.605 147
82.936 146
83.261 145
83.597 144
83.943 143
84.306 142
84.664 141
85.011 140
85.378 139
85.754 138
86.129 137
86.508 136
86.881 135
87.257 134
87.646 133
88.046 132
88.443 131
88.825 130
89.224 129
89.633 128
90.042 127
90.450 126
90.867 125
91.294 124
91.717 123
92.147 122
92.587 121
93.035 120
93.484 119
93.930 118
94.387 117
94.841 116
95.307 115
95.774 114
96.237 113
96.714 112
97.198 111
97.694 110
98.199 109
98.703 108
99.214 107
99.739 106
100.269 105
100.802 104
101.346 103
101.903 102
102.458 101
103.018 100
103.592 99
104.182 98
104.787 97
105.382 96
105.985 95
106.606 94
107.234 93
107.869 92
108.516 91
109.170 90
109.831 89
110.505 88
111.193 87
111.886 86
112.589 85
113.311 84
114.039 83
114.778 82
115.545 81
116.324 80
117.108 79
117.906 78
118.724 77
119.560 76
120.417 75
121.261 74
122.102 73
122.989 72
123.900 71
124.820 70
124.991 69.8
125.188 69.6
125.382 69.4
125.562 69.2
125.775 69
125.983 68.8
126.152 68.6
126.331 68.4
126.533 68.2
126.726 68
126.917 67.8
127.126 67.6
127.336 67.4
127.529 67.2
127.729 67
127.903 66.8
128.111 66.6
128.303 66.4
128.513 66.2
128.724 66
128.932 65.8
129.142 65.6
129.311 65.4
129.510 65.2
129.724 65
129.937 64.8
130.147 64.6
130.355 64.4
130.565 64.2
130.791 64
130.994 63.8
131.199 63.6
131.392 63.4
131.606 63.2
131.824 63
132.039 62.8
132.304 62.6
132.522 62.4
132.737 62.2
132.963 62
133.156 61.8
133.367 61.6
133.594 61.4
133.822 61.2
134.054 61
134.287 60.8
134.510 60.6
134.761 60.4
134.990 60.2
135.208 60
135.455 59.8
135.658 59.6
135.875 59.4
136.115 59.2
136.371 59
136.604 58.8
136.855 58.6
137.101 58.4
137.329 58.2
137.572 58
137.837 57.8
138.083 57.6
138.295 57.4
138.520 57.2
138.775 57
139.046 56.8
139.302 56.6
139.555 56.4
139.802 56.2
140.081 56
140.338 55.8
140.570 55.6
140.819 55.4
141.082 55.2
141.350 55
141.612 54.8
141.852 54.6
142.124 54.4
142.419 54.2
142.685 54
142.940 53.8
143.202 53.6
143.470 53.4
143.742 53.2
144.019 53
144.301 52.8
144.580 52.6
144.859 52.4
145.134 52.2
145.414 52
145.699 51.8
145.985 51.6
146.274 51.4
146.574 51.2
146.873 51
147.142 50.8
147.426 50.6
147.715 50.4
148.019 50.2
148.329 50
148.629 49.8
148.885 49.6
149.152 49.4
149.528 49.2
149.829 49
150.142 48.8
150.480 48.6
150.823 48.4
151.101 48.2
151.405 48
151.735 47.8
152.142 47.6
152.519 47.4
152.867 47.2
153.071 47
153.321 46.8
153.656 46.6
153.966 46.4
154.302 46.2
154.631 46
154.965 45.8
155.317 45.6
155.662 45.4
156.002 45.2
156.343 45
156.688 44.8
157.038 44.6
157.394 44.4
157.729 44.2
158.082 44
158.454 43.8
158.809 43.6
159.216 43.4
159.592 43.2
159.888 43
160.267 42.8
160.638 42.6
161.026 42.4
161.408 42.2
161.781 42
162.154 41.8
162.528 41.6
162.897 41.4
163.282 41.2
163.684 41
164.095 40.8
164.500 40.6
164.881 40.4
165.280 40.2
165.690 40
166.101 39.8
166.517 39.6
166.942 39.4
167.327 39.2
167.768 39
168.199 38.8
168.577 38.6
169.028 38.4
169.469 38.2
169.875 38
170.315 37.8
170.744 37.6
171.209 37.4
171.669 37.2
172.090 37
172.550 36.8
173.006 36.6
173.453 36.4
173.931 36.2
174.413 36
174.875 35.8
175.345 35.6
175.837 35.4
176.281 35.2
176.793 35
177.289 34.8
177.758 34.6
178.239 34.4
178.801 34.2
179.272 34
179.780 33.8
180.285 33.6
180.795 33.4
181.351 33.2
181.840 33
182.386 32.8
182.931 32.6
183.486 32.4
183.983 32.2
184.532 32
185.096 31.8
185.702 31.6
186.256 31.4
186.783 31.2
187.403 31
187.955 30.8
188.520 30.6
189.103 30.4
189.690 30.2
190.275 30
190.567 29.9
190.906 29.8
191.212 29.7
191.510 29.6
191.810 29.5
192.112 29.4
192.406 29.3
192.707 29.2
193.071 29.1
193.346 29
193.636 28.9
193.972 28.8
194.304 28.7
194.616 28.6
194.927 28.5
195.236 28.4
195.557 28.3
195.899 28.2
196.236 28.1
196.570 28
196.899 27.9
197.215 27.8
197.590 27.7
197.904 27.6
198.216 27.5
198.543 27.4
198.878 27.3
199.222 27.2
199.575 27.1
199.943 27
200.321 26.9
200.688 26.8
200.956 26.7
201.339 26.6
201.688 26.5
202.029 26.4
202.378 26.3
202.743 26.2
203.113 26.1
203.514 26
203.906 25.9
204.232 25.8
204.597 25.7
204.967 25.6
205.359 25.5
205.727 25.4
206.104 25.3
206.490 25.2
206.874 25.1
207.253 25
207.635 24.9
208.025 24.8
208.426 24.7
208.814 24.6
209.150 24.5
209.550 24.4
209.950 24.3
210.362 24.2
210.773 24.1
211.182 24
211.597 23.9
212.012 23.8
212.421 23.7
212.831 23.6
213.249 23.5
213.674 23.4
214.108 23.3
214.543 23.2
214.966 23.1
215.380 23
215.793 22.9
216.215 22.8
216.654 22.7
217.098 22.6
217.547 22.5
217.993 22.4
218.438 22.3
218.885 22.2
219.354 22.1
219.813 22
220.273 21.9
220.731 21.8
221.189 21.7
221.647 21.6
222.159 21.5
222.684 21.4
223.147 21.3
223.610 21.2
224.072 21.1
224.594 21
225.100 20.9
225.567 20.8
226.044 20.7
226.565 20.6
227.086 20.5
227.606 20.4
228.122 20.3
228.633 20.2
229.143 20.1
229.663 20
230.200 19.9
230.737 19.8
231.277 19.7
231.819 19.6
232.357 19.5
232.897 19.4
233.455 19.3
234.012 19.2
234.566 19.1
235.080 19
235.661 18.9
236.254 18.8
236.845 18.7
237.436 18.6
238.031 18.5
238.639 18.4
239.246 18.3
239.847 18.2
240.439 18.1
241.031 18
241.650 17.9
242.300 17.8
242.950 17.7
243.609 17.6
244.273 17.5
244.932 17.4
245.586 17.3
246.241 17.2
246.903 17.1
247.595 17
248.286 16.9
248.932 16.8
249.533 16.7
250.334 16.6
251.065 16.5
251.779 16.4
252.492 16.3
253.207 16.2
253.922 16.1
254.619 16
255.304 15.9
256.038 15.8
256.871 15.7
257.636 15.6
258.404 15.5
259.186 15.4
259.968 15.3
260.760 15.2
261.566 15.1
262.372 15
262.980 14.9
263.857 14.8
264.820 14.7
265.702 14.6
266.532 14.5
267.363 14.4
268.231 14.3
269.125 14.2
270.019 14.1
270.798 14
271.462 13.9
272.594 13.8
273.710 13.7
274.655 13.6
275.602 13.5
276.548 13.4
277.540 13.3
278.548 13.2
279.556 13.1
280.547 13
281.405 12.9
282.454 12.8
283.600 12.7
284.736 12.6
285.836 12.5
286.936 12.4
288.036 12.3
289.139 12.2
290.261 12.1
291.382 12
292.504 11.9
293.625 11.8
294.864 11.7
296.141 11.6
297.418 11.5
298.694 11.4
299.971 11.3
301.297 11.2
302.629 11.1
303.961 11
305.293 10.9
306.625 10.8
308.085 10.7
309.549 10.6
310.987 10.5
312.426 10.4
313.865 10.3
315.303 10.2
316.913 10.1
318.537 10
320.161 9.9
321.785 9.8
323.408 9.7
325.032 9.6
326.738 9.5
328.558 9.4
330.379 9.3
332.200 9.2
334.020 9.1
335.841 9
337.661 8.9
339.626 8.8
341.791 8.7
343.957 8.6
346.122 8.5
348.278 8.4
350.368 8.3
352.460 8.2
354.551 8.1
356.896 8
357.430 7.98
357.965 7.96
358.501 7.94
359.036 7.92
359.571 7.9
360.106 7.88
360.641 7.86
361.177 7.84
361.712 7.82
362.247 7.8
362.782 7.78
363.317 7.76
363.853 7.74
364.388 7.72
364.923 7.7
365.458 7.68
365.993 7.66
366.529 7.64
367.064 7.62
367.599 7.6
368.134 7.58
368.669 7.56
369.205 7.54
369.740 7.52
370.275 7.5
370.810 7.48
371.345 7.46
371.880 7.44
372.418 7.42
372.945 7.4
373.432 7.38
373.900 7.36
374.372 7.34
374.844 7.32
375.315 7.3
375.787 7.28
376.258 7.26
376.729 7.24
377.201 7.22
377.673 7.2
378.139 7.18
378.621 7.16
379.217 7.14
379.897 7.12
380.566 7.1
381.237 7.08
381.907 7.06
382.578 7.04
383.249 7.02
383.919 7
384.590 6.98
385.260 6.96
385.931 6.94
386.601 6.92
387.272 6.9
387.942 6.88
388.613 6.86
389.284 6.84
389.954 6.82
390.625 6.8
391.295 6.78
391.966 6.76
392.636 6.74
393.307 6.72
393.977 6.7
394.648 6.68
395.318 6.66
395.989 6.64
396.660 6.62
397.330 6.6
398.001 6.58
398.671 6.56
399.343 6.54
400.006 6.52
400.650 6.5
401.288 6.48
401.928 6.46
402.568 6.44
403.208 6.42
403.848 6.4
404.488 6.38
405.127 6.36
405.767 6.34
406.407 6.32
407.047 6.3
407.687 6.28
408.327 6.26
408.969 6.24
409.597 6.22
410.296 6.2
411.120 6.18
411.976 6.16
412.820 6.14
413.667 6.12
414.514 6.1
415.360 6.08
416.207 6.06
417.054 6.04
417.900 6.02
418.747 6
419.594 5.98
420.440 5.96
421.287 5.94
422.134 5.92
422.980 5.9
423.827 5.88
424.674 5.86
425.518 5.84
426.400 5.82
427.328 5.8
428.259 5.78
429.189 5.76
430.118 5.74
431.047 5.72
431.977 5.7
432.906 5.68
433.836 5.66
434.765 5.64
435.695 5.62
436.624 5.6
437.554 5.58
438.483 5.56
439.413 5.54
440.342 5.52
441.272 5.5
442.201 5.48
443.131 5.46
444.060 5.44
444.990 5.42
445.919 5.4
446.849 5.38
447.778 5.36
448.708 5.34
449.637 5.32
450.553 5.3
451.463 5.28
452.356 5.26
453.322 5.24
454.425 5.22
455.569 5.2
456.700 5.18
457.833 5.16
458.966 5.14
460.099 5.12
461.232 5.1
462.365 5.08
463.498 5.06
464.631 5.04
465.765 5.02
466.898 5
468.031 4.98
469.162 4.96
470.319 4.94
471.507 4.92
472.697 4.9
473.886 4.88
475.076 4.86
476.265 4.84
477.454 4.82
478.643 4.8
479.833 4.78
481.022 4.76
482.212 4.74
483.398 4.72
484.590 4.7
485.873 4.68
487.234 4.66
488.589 4.64
489.945 4.62
491.301 4.6
492.656 4.58
494.012 4.56
495.366 4.54
496.727 4.52
498.106 4.5
499.493 4.48
500.877 4.46
502.272 4.44
503.603 4.42
505.295 4.4
507.739 4.38
509.817 4.36
510.329 4.34
510.796 4.32
512.357 4.3
514.056 4.28
515.624 4.26
517.121 4.24
518.701 4.22
520.314 4.2
521.829 4.18
523.426 4.16
525.086 4.14
526.754 4.12
528.415 4.1
530.054 4.08
531.851 4.06
533.652 4.04
535.344 4.02
537.089 4
538.888 3.98
540.717 3.96
542.608 3.94
544.376 3.92
546.203 3.9
548.116 3.88
550.038 3.86
551.974 3.84
553.789 3.82
555.682 3.8
557.732 3.78
559.833 3.76
561.882 3.74
563.915 3.72
565.918 3.7
568.040 3.68
570.187 3.66
572.376 3.64
574.646 3.62
576.774 3.6
579.008 3.58
581.312 3.56
583.619 3.54
586.036 3.52
588.343 3.5
590.615 3.48
593.004 3.46
595.261 3.44
597.700 3.42
600.239 3.4
602.749 3.38
605.514 3.36
608.189 3.34
610.794 3.32
613.473 3.3
616.164 3.28
618.885 3.26
621.500 3.24
624.134 3.22
626.905 3.2
629.900 3.18
632.824 3.16
635.579 3.14
638.642 3.12
641.815 3.1
644.738 3.08
647.918 3.06
651.213 3.04
654.342 3.02
657.742 3
660.978 2.98
664.634 2.96
668.382 2.94
671.382 2.92
674.587 2.9
678.086 2.88
681.653 2.86
685.078 2.84
688.789 2.82
692.839 2.8
696.922 2.78
700.840 2.76
704.541 2.74
708.497 2.72
712.679 2.7
717.061 2.68
721.135 2.66
725.181 2.64
729.609 2.62
733.808 2.6
738.230 2.58
743.417 2.56
748.050 2.54
752.431 2.52
757.503 2.5
762.450 2.48
767.402 2.46
772.426 2.44
778.297 2.42
783.830 2.4
788.374 2.38
793.917 2.36
799.765 2.34
805.422 2.32
811.328 2.3
817.104 2.28
823.244 2.26
830.245 2.24
836.091 2.22
841.934 2.2
849.425 2.18
855.962 2.16
862.304 2.14
869.573 2.12
877.265 2.1
885.435 2.08
893.586 2.06
901.734 2.04
909.882 2.02
918.030 2
922.104 1.99
926.178 1.98
930.252 1.97
934.326 1.96
938.400 1.95
942.474 1.94
946.565 1.93
950.642 1.92
954.640 1.91
958.680 1.9
962.935 1.89
967.520 1.88
972.434 1.87
977.564 1.86
982.735 1.85
987.827 1.84
992.907 1.83
998.002 1.82
1003.097 1.81
1008.205 1.8
1013.307 1.79
1018.337 1.78
1023.398 1.77
1028.643 1.76
1034.174 1.75
1039.995 1.74
1046.010 1.73
1052.068 1.72
1058.058 1.71
1064.032 1.7
1070.032 1.69
1076.012 1.68
1081.980 1.67
1088.001 1.66
1094.039 1.65
1100.187 1.64
1106.540 1.63
1113.147 1.62
1119.993 1.61
1126.945 1.6
1133.938 1.59
1141.115 1.58
1148.401 1.57
1155.748 1.56
1163.322 1.55
1170.976 1.54
1178.610 1.53
1186.346 1.52
1194.250 1.51
1202.188 1.5
1210.319 1.49
1218.812 1.48
1227.464 1.47
1236.242 1.46
1245.084 1.45
1253.924 1.44
1262.924 1.43
1272.232 1.42
1281.707 1.41
1291.329 1.4
1301.188 1.39
1311.201 1.38
1321.440 1.37
1331.898 1.36
1342.557 1.35
1353.339 1.34
1364.340 1.33
1375.593 1.32
1387.008 1.31
1398.641 1.3
1410.523 1.29
1422.738 1.28
1435.307 1.27
1448.162 1.26
1461.261 1.25
1474.465 1.24
1487.848 1.23
1501.599 1.22
1515.787 1.21
1530.246 1.2
1544.932 1.19
1560.058 1.18
1575.484 1.17
1591.214 1.16
1607.308 1.15
1624.145 1.14
1641.405 1.13
1659.147 1.12
1677.544 1.11
1696.254 1.1
1715.205 1.09
1734.198 1.08
1753.271 1.07
1772.800 1.06
1793.200 1.05
1815.255 1.04
1838.207 1.03
1860.997 1.02
1883.718 1.01
1906.994 1
1931.591 0.99
1956.988 0.98
1982.952 0.97
2009.462 0.96
2036.417 0.95
2064.688 0.94
2094.245 0.93
2124.660 0.92
2155.850 0.91
2188.054 0.9
2221.527 0.89
2255.626 0.88
2290.822 0.87
2327.519 0.86
2365.890 0.85
2405.257 0.84
2445.995 0.83
2488.094 0.82
2531.636 0.81
2577.091 0.8
2581.756 0.799
2586.441 0.798
2591.140 0.797
2595.858 0.796
2600.576 0.795
2605.303 0.794
2610.058 0.793
2614.833 0.792
2619.635 0.791
2624.454 0.79
2629.276 0.789
2634.125 0.788
2638.987 0.787
2643.866 0.786
2648.771 0.785
2653.699 0.784
2658.635 0.783
2663.588 0.782
2668.578 0.781
2673.583 0.78
2678.585 0.779
2683.606 0.778
2688.643 0.777
2693.691 0.776
2698.737 0.775
2703.787 0.774
2708.856 0.773
2713.955 0.772
2719.060 0.771
2724.175 0.77
2729.341 0.769
2734.541 0.768
2739.774 0.767
2745.037 0.766
2750.334 0.765
2755.661 0.764
2761.008 0.763
2766.385 0.762
2771.777 0.761
2777.189 0.76
2782.621 0.759
2788.068 0.758
2793.559 0.757
2799.080 0.756
2804.604 0.755
2810.135 0.754
2815.689 0.753
2821.279 0.752
2826.870 0.751
2832.491 0.75
2838.137 0.749
2843.791 0.748
2849.464 0.747
2855.183 0.746
2860.906 0.745
2866.638 0.744
2872.408 0.743
2878.207 0.742
2884.037 0.741
2889.908 0.74
2895.820 0.739
2901.719 0.738
2907.624 0.737
2913.566 0.736
2919.529 0.735
2925.509 0.734
2931.527 0.733
2937.552 0.732
2943.595 0.731
2949.681 0.73
2955.809 0.729
2961.975 0.728
2968.163 0.727
2974.371 0.726
2980.599 0.725
2986.845 0.724
2993.109 0.723
2999.397 0.722
3005.728 0.721
3012.112 0.72
3018.487 0.719
3024.904 0.718
3031.358 0.717
3037.849 0.716
3044.377 0.715
3050.923 0.714
3057.509 0.713
3064.117 0.712
3070.732 0.711
3077.361 0.71
3084.027 0.709
3090.730 0.708
3097.465 0.707
3104.263 0.706
3111.078 0.705
3117.883 0.704
3124.742 0.703
3131.681 0.702
3138.644 0.701
3145.602 0.7
3152.598 0.699
3159.620 0.698
3166.685 0.697
3173.782 0.696
3180.889 0.695
3188.049 0.694
3195.277 0.693
3202.533 0.692
3209.796 0.691
3217.075 0.69
3224.351 0.689
3231.664 0.688
3239.041 0.687
3246.436 0.686
3253.873 0.685
3261.354 0.684
3268.862 0.683
3276.408 0.682
3283.995 0.681
3291.600 0.68
3299.224 0.679
3306.903 0.678
3314.630 0.677
3322.363 0.676
3330.120 0.675
3337.908 0.674
3345.725 0.673
3353.604 0.672
3361.528 0.671
3369.516 0.67
3377.568 0.669
3385.616 0.668
3393.705 0.667
3401.809 0.666
3409.948 0.665
3418.123 0.664
3426.351 0.663
3434.632 0.662
3442.952 0.661
3451.350 0.66
3459.751 0.659
3468.189 0.658
3476.711 0.657
3485.237 0.656
3493.800 0.655
3502.419 0.654
3511.087 0.653
3519.805 0.652
3528.556 0.651
3537.343 0.65
3546.136 0.649
3554.973 0.648
3563.831 0.647
3572.793 0.646
3581.862 0.645
3590.969 0.644
3600.131 0.643
3609.323 0.642
3618.493 0.641
3627.741 0.64
3637.024 0.639
3646.356 0.638
3655.794 0.637
3665.347 0.636
3674.880 0.635
3684.458 0.634
3694.048 0.633
3703.669 0.632
3713.416 0.631
3723.116 0.63
3732.890 0.629
3742.732 0.628
3752.572 0.627
3762.390 0.626
3772.379 0.625
3782.471 0.624
3792.539 0.623
3802.653 0.622
3812.834 0.621
3823.142 0.62
3833.413 0.619
3843.797 0.618
3854.220 0.617
3864.708 0.616
3875.221 0.615
3885.799 0.614
3896.428 0.613
3907.072 0.612
3917.765 0.611
3928.541 0.61
3939.374 0.609
3950.198 0.608
3961.064 0.607
3972.030 0.606
3983.002 0.605
3993.996 0.604
4005.144 0.603
4016.387 0.602
4027.657 0.601
4039.022 0.6
4050.468 0.599
4061.969 0.598
4073.548 0.597
4085.176 0.596
4096.806 0.595
4108.580 0.594
4120.464 0.593
4132.370 0.592
4144.340 0.591
4156.255 0.59
4168.365 0.589
4180.504 0.588
4192.583 0.587
4205.044 0.586
4217.616 0.585
4230.270 0.584
4242.968 0.583
4255.744 0.582
4268.540 0.581
4281.217 0.58
4294.077 0.579
4307.232 0.578
4320.448 0.577
4333.694 0.576
4346.997 0.575
4360.347 0.574
4373.873 0.573
4387.484 0.572
4400.987 0.571
4414.414 0.57
4428.059 0.569
4441.896 0.568
4455.660 0.567
4469.386 0.566
4483.350 0.565
4497.513 0.564
4511.761 0.563
4525.928 0.562
4540.457 0.561
4555.168 0.56
4569.755 0.559
4584.444 0.558
4599.236 0.557
4614.215 0.556
4629.303 0.555
4644.361 0.554
4659.475 0.553
4672.228 0.552
4687.005 0.551
4703.253 0.55
4719.479 0.549
4735.652 0.548
4751.756 0.547
4767.985 0.546
4784.223 0.545
4800.424 0.544
4816.669 0.543
4832.866 0.542
4848.981 0.541
4865.186 0.54
4881.512 0.539
4898.009 0.538
4914.493 0.537
4930.904 0.536
4947.274 0.535
4963.852 0.534
4980.638 0.533
4997.384 0.532
5014.195 0.531
5030.879 0.53
5047.683 0.529
5064.905 0.528
5082.274 0.527
5099.807 0.526
5117.476 0.525
5138.454 0.524
5158.337 0.523
5174.706 0.522
5191.401 0.521
5208.491 0.52
5225.505 0.519
5243.007 0.518
5261.123 0.517
5279.572 0.516
5298.249 0.515
5317.154 0.514
5336.403 0.513
5355.897 0.512
5375.539 0.511
5395.404 0.51
5415.571 0.509
5436.029 0.508
5456.653 0.507
5477.616 0.506
5498.819 0.505
5520.112 0.504
5541.727 0.503
5563.641 0.502
5585.735 0.501
5607.950 0.5
5630.232 0.499
5652.806 0.498
5675.641 0.497
5698.673 0.496
5721.863 0.495
5745.218 0.494
5768.762 0.493
5792.504 0.492
5816.415 0.491
5840.459 0.49
5864.784 0.489
5889.257 0.488
5914.060 0.487
5939.254 0.486
5964.303 0.485
5989.325 0.484
6014.503 0.483
6039.956 0.482
6065.576 0.481
6091.344 0.48
6117.449 0.479
6143.695 0.478
6169.863 0.477
6196.059 0.476
6222.344 0.475
6248.791 0.474
6275.472 0.473
6302.242 0.472
6329.086 0.471
6355.999 0.47
6383.095 0.469
6410.224 0.468
6437.342 0.467
6464.816 0.466
6492.663 0.465
6520.601 0.464
6548.613 0.463
6576.788 0.462
6605.415 0.461
6634.013 0.46
6662.568 0.459
6691.323 0.458
6720.308 0.457
6749.515 0.456
6778.634 0.455
6807.922 0.454
6837.434 0.453
6867.043 0.452
6904.375 0.451
6939.216 0.45
6968.327 0.449
6998.065 0.448
7028.418 0.447
7059.444 0.446
7090.921 0.445
7122.834 0.444
7155.298 0.443
7188.197 0.442
7221.621 0.441
7255.745 0.44
7290.454 0.439
7325.668 0.438
7361.275 0.437
7397.387 0.436
7433.945 0.435
7471.028 0.434
7508.640 0.433
7546.522 0.432
7584.997 0.431
7624.156 0.43
7664.223 0.429
7704.903 0.428
7745.737 0.427
7787.128 0.426
7829.132 0.425
7871.852 0.424
7910.773 0.423
7949.324 0.422
7991.310 0.421
8033.891 0.42
8076.667 0.419
8120.134 0.418
8164.245 0.417
8208.573 0.416
8253.285 0.415
8298.321 0.414
8343.734 0.413
8389.514 0.412
8435.563 0.411
8482.034 0.41
8529.023 0.409
8576.444 0.408
8624.146 0.407
8672.268 0.406
8720.801 0.405
8769.787 0.404
8819.227 0.403
8869.014 0.402
8919.164 0.401
8969.768 0.4
9020.831 0.399
9072.375 0.398
9124.451 0.397
9176.973 0.396
9229.885 0.395
9283.341 0.394
9337.426 0.393
9391.914 0.392
9446.960 0.391
9502.669 0.39
9558.762 0.389
9615.283 0.388
9672.379 0.387
9730.007 0.386
9788.078 0.385
9846.675 0.384
9906.283 0.383
9966.664 0.382
10027.508 0.381
10088.905 0.38
10151.047 0.379
10213.861 0.378
10277.226 0.377
10341.301 0.376
10406.307 0.375
10472.202 0.374
10538.922 0.373
10606.548 0.372
10674.884 0.371
10743.793 0.37
10813.569 0.369
10884.431 0.368
10956.385 0.367
11034.022 0.366
11110.533 0.365
11183.283 0.364
11257.041 0.363
11331.774 0.362
11407.680 0.361
11484.856 0.36
11563.558 0.359
11643.614 0.358
11724.980 0.357
11807.669 0.356
11891.871 0.355
11977.930 0.354
12065.365 0.353
12154.008 0.352
12244.265 0.351
12330.312 0.35
12416.995 0.349
12509.051 0.348
12602.385 0.347
12696.761 0.346
12792.232 0.345
12888.963 0.344
12987.194 0.343
13086.874 0.342
13188.642 0.341
13291.359 0.34
13394.856 0.339
13500.687 0.338
13607.688 0.337
13715.041 0.336
13823.137 0.335
13932.304 0.334
14043.208 0.333
14155.872 0.332
14270.290 0.331
14386.684 0.33
14504.759 0.329
14623.650 0.328
14744.258 0.327
14866.862 0.326
14991.335 0.325
15117.541 0.324
15245.613 0.323
15375.811 0.322
15507.822 0.321
15641.281 0.32
15776.602 0.319
15914.178 0.318
16054.327 0.317
16196.299 0.316
16339.747 0.315
16485.552 0.314
16633.415 0.313
16783.015 0.312
16934.551 0.311
17088.493 0.31
17245.115 0.309
17404.256 0.308
17565.736 0.307
17729.706 0.306
17896.138 0.305
18065.241 0.304
18236.743 0.303
18410.066 0.302
18585.608 0.301
18764.648 0.3
18946.886 0.299
19131.480 0.298
19319.446 0.297
19510.281 0.296
19704.787 0.295
19902.861 0.294
20103.219 0.293
20307.367 0.292
20515.547 0.291
20727.484 0.29
20942.729 0.289
21161.361 0.288
21384.395 0.287
21611.109 0.286
21840.924 0.285
22074.994 0.284
22313.794 0.283
22556.549 0.282
22802.815 0.281
23052.719 0.28
23306.542 0.279
23564.062 0.278
23826.247 0.277
24094.551 0.276
24368.716 0.275
24648.248 0.274
24933.931 0.273
25225.863 0.272
25523.420 0.271
25826.935 0.27
26135.982 0.269
26451.739 0.268
26774.342 0.267
27102.844 0.266
27431.831 0.265
27767.105 0.264
28111.938 0.263
28463.509 0.262
28823.127 0.261
29189.088 0.26
29562.185 0.259
29942.894 0.258
30320.163 0.257
30706.167 0.256
31101.135 0.255
31505.130 0.254
31918.139 0.253
32340.644 0.252
32773.187 0.251
33215.755 0.25
33668.616 0.249
34132.191 0.248
34606.425 0.247
35091.620 0.246
35588.358 0.245
36096.903 0.244
36617.525 0.243
37150.333 0.242
37695.472 0.241
38252.384 0.24
38822.298 0.239
39405.760 0.238
40001.338 0.237
40610.019 0.236
41233.071 0.235
41870.794 0.234
42523.659 0.233
43191.430 0.232
43874.181 0.231
44572.313 0.23
45285.834 0.229
46015.038 0.228
46761.084 0.227
47523.895 0.226
48303.630 0.225
49095.513 0.224
49904.918 0.223
50732.214 0.222
51577.779 0.221
52441.995 0.22
53325.250 0.219
54227.936 0.218
55150.452 0.217
56093.203 0.216
57056.597 0.215
58041.050 0.214
59046.981 0.213
60074.815 0.212
61124.986 0.211
62197.927 0.21
63294.082 0.209
64413.898 0.208
65557.826 0.207
66726.327 0.206
67919.862 0.205
69138.902 0.204
70383.920 0.203
71655.396 0.202
72953.815 0.201
74279.668 0.2
75633.452 0.199
77015.667 0.198
78426.821 0.197
79867.425 0.196
81337.998 0.195
82839.062 0.194
84371.147 0.193
85934.786 0.192
87530.518 0.191
89158.889 0.19
90820.449 0.189
92515.753 0.188
94245.363 0.187
96009.844 0.186
97809.770 0.185
99645.717 0.184
101518.267 0.183
103428.011 0.182
105375.539 0.181
107361.453 0.18
109386.356 0.179
111450.859 0.178
113555.575 0.177
115701.127 0.176
117888.140 0.175
