# TIME w/ LS370, calibrated against X107797
# Calibration data taken from 20190124 to 20190220
# Constrained by data from 0.261K to 280.4K, extrapolated elsewhere
# Calibration generated 2019-07-22 13:13:43.481141, verified monotonic
# R[Ohms] T[K]
39.580 325
39.635 324
39.691 323
39.748 322
39.806 321
39.865 320
39.924 319
39.985 318
40.047 317
40.110 316
40.174 315
40.238 314
40.304 313
40.371 312
40.438 311
40.507 310
40.577 309
40.647 308
40.719 307
40.791 306
40.865 305
40.939 304
41.015 303
41.091 302
41.169 301
41.247 300
41.326 299
41.407 298
41.488 297
41.570 296
41.654 295
41.738 294
41.823 293
41.909 292
41.996 291
42.085 290
42.174 289
42.264 288
42.355 287
42.447 286
42.540 285
42.634 284
42.729 283
42.825 282
42.922 281
42.986 280
43.090 279
43.195 278
43.298 277
43.402 276
43.507 275
43.616 274
43.726 273
43.835 272
43.948 271
44.062 270
44.169 269
44.278 268
44.401 267
44.509 266
44.623 265
44.739 264
44.852 263
44.972 262
45.087 261
45.202 260
45.318 259
45.440 258
45.570 257
45.678 256
45.792 255
45.924 254
46.046 253
46.164 252
46.294 251
46.424 250
46.551 249
46.677 248
46.807 247
46.935 246
47.059 245
47.199 244
47.335 243
47.465 242
47.606 241
47.744 240
47.875 239
48.004 238
48.142 237
48.292 236
48.443 235
48.576 234
48.717 233
48.863 232
48.999 231
49.141 230
49.286 229
49.439 228
49.596 227
49.735 226
49.887 225
50.056 224
50.205 223
50.349 222
50.498 221
50.661 220
50.822 219
50.971 218
51.131 217
51.307 216
51.468 215
51.628 214
51.794 213
51.951 212
52.117 211
52.295 210
52.467 209
52.634 208
52.800 207
52.981 206
53.160 205
53.337 204
53.514 203
53.692 202
53.886 201
54.067 200
54.246 199
54.443 198
54.632 197
54.819 196
55.012 195
55.203 194
55.397 193
55.585 192
55.776 191
55.981 190
56.188 189
56.398 188
56.604 187
56.804 186
57.006 185
57.213 184
57.430 183
57.644 182
57.856 181
58.070 180
58.291 179
58.512 178
58.736 177
58.972 176
59.195 175
59.418 174
59.652 173
59.879 172
60.113 171
60.350 170
60.591 169
60.834 168
61.074 167
61.322 166
61.576 165
61.822 164
62.079 163
62.337 162
62.585 161
62.847 160
63.116 159
63.380 158
63.650 157
63.928 156
64.203 155
64.469 154
64.732 153
65.029 152
65.305 151
65.589 150
65.897 149
66.190 148
66.478 147
66.775 146
67.069 145
67.359 144
67.687 143
68.006 142
68.321 141
68.650 140
68.976 139
69.314 138
69.648 137
69.965 136
70.288 135
70.634 134
70.987 133
71.325 132
71.686 131
72.056 130
72.405 129
72.770 128
73.122 127
73.497 126
73.892 125
74.256 124
74.677 123
75.081 122
75.427 121
75.840 120
76.246 119
76.663 118
77.063 117
77.476 116
77.891 115
78.320 114
78.769 113
79.212 112
79.661 111
80.114 110
80.597 109
81.085 108
81.535 107
81.983 106
82.474 105
82.990 104
83.485 103
83.976 102
84.507 101
85.035 100
85.536 99
86.075 98
86.618 97
87.159 96
87.750 95
88.332 94
88.917 93
89.503 92
90.089 91
90.711 90
91.342 89
91.957 88
92.584 87
93.231 86
93.889 85
94.584 84
95.308 83
96.008 82
96.666 81
97.384 80
98.129 79
98.857 78
99.642 77
100.424 76
101.218 75
102.033 74
102.874 73
103.727 72
104.576 71
105.455 70
105.621 69.8
105.798 69.6
105.999 69.4
106.175 69.2
106.349 69
106.550 68.8
106.741 68.6
106.907 68.4
107.079 68.2
107.267 68
107.424 67.8
107.587 67.6
107.804 67.4
108.021 67.2
108.223 67
108.387 66.8
108.553 66.6
108.771 66.4
108.974 66.2
109.158 66
109.341 65.8
109.560 65.6
109.770 65.4
109.953 65.2
110.145 65
110.347 64.8
110.531 64.6
110.735 64.4
110.939 64.2
111.113 64
111.322 63.8
111.565 63.6
111.774 63.4
111.946 63.2
112.144 63
112.390 62.8
112.603 62.6
112.765 62.4
112.970 62.2
113.205 62
113.409 61.8
113.645 61.6
113.834 61.4
114.043 61.2
114.303 61
114.510 60.8
114.694 60.6
114.935 60.4
115.177 60.2
115.414 60
115.620 59.8
115.817 59.6
116.063 59.4
116.321 59.2
116.547 59
116.742 58.8
116.969 58.6
117.220 58.4
117.450 58.2
117.661 58
117.913 57.8
118.164 57.6
118.376 57.4
118.618 57.2
118.867 57
119.110 56.8
119.353 56.6
119.591 56.4
119.852 56.2
120.078 56
120.306 55.8
120.566 55.6
120.821 55.4
121.045 55.2
121.295 55
121.599 54.8
121.860 54.6
122.084 54.4
122.310 54.2
122.592 54
122.860 53.8
123.097 53.6
123.393 53.4
123.700 53.2
123.939 53
124.227 52.8
124.520 52.6
124.728 52.4
124.995 52.2
125.275 52
125.552 51.8
125.856 51.6
126.121 51.4
126.412 51.2
126.708 51
126.990 50.8
127.264 50.6
127.542 50.4
127.833 50.2
128.108 50
128.413 49.8
128.701 49.6
128.980 49.4
129.292 49.2
129.609 49
129.925 48.8
130.201 48.6
130.490 48.4
130.816 48.2
131.160 48
131.453 47.8
131.745 47.6
132.064 47.4
132.359 47.2
132.654 47
132.972 46.8
133.325 46.6
133.667 46.4
133.975 46.2
134.304 46
134.637 45.8
134.944 45.6
135.277 45.4
135.649 45.2
135.978 45
136.354 44.8
136.654 44.6
136.978 44.4
137.357 44.2
137.719 44
138.088 43.8
138.458 43.6
138.803 43.4
139.150 43.2
139.506 43
139.862 42.8
140.236 42.6
140.651 42.4
141.001 42.2
141.319 42
141.660 41.8
142.043 41.6
142.470 41.4
142.887 41.2
143.281 41
143.677 40.8
144.082 40.6
144.424 40.4
144.776 40.2
145.211 40
145.574 39.8
145.973 39.6
146.393 39.4
146.825 39.2
147.307 39
147.729 38.8
148.105 38.6
148.543 38.4
148.958 38.2
149.382 38
149.848 37.8
150.286 37.6
150.734 37.4
151.131 37.2
151.558 37
152.025 36.8
152.512 36.6
152.911 36.4
153.372 36.2
153.881 36
154.390 35.8
154.814 35.6
155.277 35.4
155.795 35.2
156.296 35
156.763 34.8
157.202 34.6
157.728 34.4
158.212 34.2
158.700 34
159.236 33.8
159.789 33.6
160.307 33.4
160.821 33.2
161.315 33
161.855 32.8
162.387 32.6
162.917 32.4
163.473 32.2
164.005 32
164.566 31.8
165.129 31.6
165.643 31.4
166.248 31.2
166.922 31
167.495 30.8
168.031 30.6
168.570 30.4
169.123 30.2
169.771 30
170.083 29.9
170.396 29.8
170.716 29.7
171.042 29.6
171.290 29.5
171.574 29.4
171.887 29.3
172.192 29.2
172.520 29.1
172.896 29
173.208 28.9
173.523 28.8
173.856 28.7
174.227 28.6
174.527 28.5
174.780 28.4
175.139 28.3
175.492 28.2
175.898 28.1
176.164 28
176.464 27.9
176.825 27.8
177.212 27.7
177.525 27.6
177.846 27.5
178.242 27.4
178.573 27.3
178.839 27.2
179.109 27.1
179.456 27
179.852 26.9
180.234 26.8
180.611 26.7
181.041 26.6
181.372 26.5
181.732 26.4
182.069 26.3
182.354 26.2
182.691 26.1
183.153 26
183.562 25.9
183.829 25.8
184.238 25.7
184.561 25.6
184.914 25.5
185.301 25.4
185.723 25.3
186.235 25.2
186.622 25.1
186.973 25
187.394 24.9
187.725 24.8
188.124 24.7
188.524 24.6
188.901 24.5
189.353 24.4
189.772 24.3
190.134 24.2
190.502 24.1
190.969 24
191.388 23.9
191.697 23.8
192.172 23.7
192.614 23.6
193.022 23.5
193.469 23.4
193.950 23.3
194.349 23.2
194.786 23.1
195.275 23
195.666 22.9
196.039 22.8
196.428 22.7
196.894 22.6
197.524 22.5
198.062 22.4
198.309 22.3
198.742 22.2
199.231 22.1
199.769 22
200.126 21.9
200.544 21.8
201.038 21.7
201.571 21.6
202.090 21.5
202.591 21.4
203.082 21.3
203.556 21.2
204.025 21.1
204.481 21
204.953 20.9
205.484 20.8
206.029 20.7
206.551 20.6
207.035 20.5
207.553 20.4
208.083 20.3
208.672 20.2
209.234 20.1
209.766 20
210.343 19.9
210.928 19.8
211.512 19.7
212.054 19.6
212.527 19.5
213.056 19.4
213.631 19.3
214.264 19.2
214.855 19.1
215.317 19
215.941 18.9
216.416 18.8
217.206 18.7
217.600 18.6
218.336 18.5
219.103 18.4
219.370 18.3
220.024 18.2
220.732 18.1
221.478 18
222.081 17.9
222.934 17.8
223.378 17.7
223.907 17.6
224.596 17.5
225.230 17.4
225.834 17.3
226.482 17.2
227.176 17.1
227.897 17
228.613 16.9
229.348 16.8
230.097 16.7
230.859 16.6
231.516 16.5
232.147 16.4
232.874 16.3
233.765 16.2
234.464 16.1
235.258 16
236.021 15.9
236.867 15.8
237.619 15.7
238.145 15.6
238.993 15.5
239.929 15.4
240.549 15.3
241.337 15.2
242.223 15.1
243.211 15
243.939 14.9
244.812 14.8
245.615 14.7
246.387 14.6
247.444 14.5
248.410 14.4
249.294 14.3
250.132 14.2
250.957 14.1
251.775 14
252.678 13.9
253.670 13.8
254.665 13.7
255.505 13.6
256.457 13.5
257.492 13.4
258.646 13.3
259.758 13.2
260.829 13.1
261.739 13
262.718 12.9
263.872 12.8
264.980 12.7
266.024 12.6
267.393 12.5
268.684 12.4
269.321 12.3
270.446 12.2
271.860 12.1
273.170 12
274.324 11.9
275.367 11.8
276.401 11.7
277.924 11.6
279.229 11.5
280.407 11.4
281.865 11.3
283.277 11.2
284.518 11.1
285.698 11
287.096 10.9
288.678 10.8
290.121 10.7
291.340 10.6
292.678 10.5
294.203 10.4
295.897 10.3
297.469 10.2
299.190 10.1
300.851 10
302.436 9.9
304.112 9.8
306.001 9.7
307.758 9.6
309.397 9.5
311.157 9.4
312.965 9.3
314.953 9.2
316.845 9.1
318.802 9
320.697 8.9
322.685 8.8
324.807 8.7
326.850 8.6
329.110 8.5
331.348 8.4
333.460 8.3
335.616 8.2
338.003 8.1
340.366 8
340.921 7.98
341.414 7.96
341.871 7.94
342.447 7.92
342.928 7.9
343.425 7.88
343.988 7.86
344.481 7.84
344.949 7.82
345.483 7.8
346.128 7.78
346.636 7.76
347.084 7.74
347.568 7.72
348.059 7.7
348.621 7.68
349.098 7.66
349.624 7.64
350.128 7.62
350.647 7.6
351.273 7.58
351.920 7.56
352.302 7.54
352.745 7.52
353.495 7.5
354.053 7.48
354.527 7.46
355.019 7.44
355.449 7.42
355.770 7.4
356.379 7.38
357.264 7.36
357.943 7.34
358.511 7.32
359.017 7.3
359.349 7.28
359.894 7.26
360.668 7.24
361.324 7.22
361.924 7.2
362.529 7.18
363.146 7.16
363.779 7.14
364.412 7.12
364.845 7.1
365.279 7.08
366.143 7.06
367.156 7.04
367.805 7.02
368.206 7
368.833 6.98
369.469 6.96
369.947 6.94
370.534 6.92
371.173 6.9
371.868 6.88
372.679 6.86
373.393 6.84
373.980 6.82
374.567 6.8
375.156 6.78
375.743 6.76
376.389 6.74
377.152 6.72
377.763 6.7
378.257 6.68
379.146 6.66
379.523 6.64
380.182 6.62
381.395 6.6
381.972 6.58
382.291 6.56
382.628 6.54
383.633 6.52
384.726 6.5
385.553 6.48
386.049 6.46
386.457 6.44
387.310 6.42
388.190 6.4
389.001 6.38
389.711 6.36
390.233 6.34
390.690 6.32
391.444 6.3
392.562 6.28
393.288 6.26
393.899 6.24
395.012 6.22
396.050 6.2
396.784 6.18
397.474 6.16
398.391 6.14
399.337 6.12
399.712 6.1
400.031 6.08
401.267 6.06
402.614 6.04
402.989 6.02
403.604 6
404.761 5.98
405.815 5.96
406.691 5.94
407.523 5.92
408.392 5.9
409.514 5.88
410.427 5.86
410.954 5.84
411.749 5.82
412.701 5.8
413.667 5.78
414.559 5.76
415.367 5.74
416.303 5.72
417.289 5.7
418.173 5.68
419.083 5.66
420.069 5.64
420.977 5.62
421.902 5.6
422.871 5.58
423.802 5.56
424.803 5.54
425.827 5.52
426.736 5.5
427.711 5.48
428.752 5.46
429.777 5.44
430.829 5.42
431.881 5.4
432.927 5.38
433.935 5.36
435.018 5.34
436.076 5.32
437.080 5.3
438.155 5.28
439.245 5.26
440.334 5.24
441.392 5.22
442.446 5.2
443.675 5.18
444.855 5.16
445.845 5.14
446.983 5.12
448.235 5.1
449.336 5.08
450.405 5.06
451.568 5.04
452.747 5.02
453.867 5
455.057 4.98
456.282 4.96
457.462 4.94
458.696 4.92
459.991 4.9
461.282 4.88
462.602 4.86
463.843 4.84
465.005 4.82
466.383 4.8
467.674 4.78
468.967 4.76
470.395 4.74
471.801 4.72
473.101 4.7
474.310 4.68
475.803 4.66
477.357 4.64
478.564 4.62
479.841 4.6
481.332 4.58
482.757 4.56
484.165 4.54
485.675 4.52
487.197 4.5
488.614 4.48
490.287 4.46
491.860 4.44
493.272 4.42
494.842 4.4
496.334 4.38
497.736 4.36
499.352 4.34
501.024 4.32
502.556 4.3
504.226 4.28
505.974 4.26
507.783 4.24
509.434 4.22
510.779 4.2
512.493 4.18
514.557 4.16
516.332 4.14
517.935 4.12
519.763 4.1
521.599 4.08
523.451 4.06
525.563 4.04
527.320 4.02
528.998 4
531.162 3.98
533.040 3.96
534.591 3.94
536.506 3.92
538.715 3.9
540.923 3.88
543.107 3.86
544.887 3.84
546.550 3.82
548.773 3.8
551.065 3.78
553.115 3.76
555.041 3.74
557.451 3.72
559.655 3.7
561.789 3.68
564.537 3.66
566.753 3.64
568.628 3.62
571.036 3.6
573.940 3.58
576.256 3.56
578.211 3.54
580.738 3.52
583.394 3.5
585.796 3.48
588.358 3.46
591.215 3.44
593.651 3.42
596.173 3.4
599.351 3.38
602.019 3.36
604.674 3.34
607.222 3.32
609.709 3.3
612.922 3.28
616.193 3.26
619.279 3.24
622.179 3.22
624.814 3.2
627.872 3.18
631.096 3.16
634.068 3.14
637.248 3.12
640.435 3.1
643.908 3.08
647.484 3.06
650.691 3.04
653.996 3.02
657.858 3
661.485 2.98
664.934 2.96
668.587 2.94
672.174 2.92
675.656 2.9
679.217 2.88
683.337 2.86
687.420 2.84
691.230 2.82
695.417 2.8
699.667 2.78
703.830 2.76
708.051 2.74
712.398 2.72
716.861 2.7
721.391 2.68
725.863 2.66
730.450 2.64
735.378 2.62
739.991 2.6
744.677 2.58
749.899 2.56
755.069 2.54
760.234 2.52
765.457 2.5
770.785 2.48
776.163 2.46
781.807 2.44
787.669 2.42
793.464 2.4
799.311 2.38
805.439 2.36
811.618 2.34
817.699 2.32
824.055 2.3
830.755 2.28
837.493 2.26
844.443 2.24
851.627 2.22
858.236 2.2
865.302 2.18
873.453 2.16
881.122 2.14
888.215 2.12
895.745 2.1
904.493 2.08
912.777 2.06
920.586 2.04
929.560 2.02
938.591 2
943.062 1.99
947.619 1.98
952.099 1.97
956.622 1.96
961.428 1.95
966.307 1.94
971.108 1.93
975.842 1.92
980.917 1.91
986.047 1.9
991.236 1.89
996.544 1.88
1001.590 1.87
1006.762 1.86
1012.449 1.85
1018.274 1.84
1023.976 1.83
1029.336 1.82
1034.800 1.81
1040.509 1.8
1046.323 1.79
1052.986 1.78
1059.124 1.77
1063.325 1.76
1067.437 1.75
1072.622 1.74
1079.283 1.73
1087.136 1.72
1096.344 1.71
1104.876 1.7
1110.377 1.69
1116.703 1.68
1124.751 1.67
1132.976 1.66
1140.721 1.65
1147.962 1.64
1154.046 1.63
1159.850 1.62
1166.862 1.61
1175.496 1.6
1183.547 1.59
1191.460 1.58
1199.763 1.57
1208.175 1.56
1216.874 1.55
1225.514 1.54
1234.194 1.53
1243.011 1.52
1251.910 1.51
1260.807 1.5
1269.981 1.49
1279.887 1.48
1289.788 1.47
1299.711 1.46
1309.854 1.45
1320.044 1.44
1330.875 1.43
1341.834 1.42
1352.559 1.41
1363.236 1.4
1374.495 1.39
1386.278 1.38
1397.890 1.37
1409.372 1.36
1421.059 1.35
1433.487 1.34
1446.467 1.33
1459.934 1.32
1473.866 1.31
1487.969 1.3
1502.544 1.29
1517.105 1.28
1530.650 1.27
1543.430 1.26
1557.237 1.25
1572.670 1.24
1589.101 1.23
1606.273 1.22
1623.267 1.21
1639.306 1.2
1656.088 1.19
1674.681 1.18
1693.543 1.17
1712.716 1.16
1732.162 1.15
1751.072 1.14
1769.770 1.13
1790.467 1.12
1812.524 1.11
1834.420 1.1
1857.791 1.09
1881.441 1.08
1904.407 1.07
1927.956 1.06
1952.107 1.05
1976.133 1.04
2001.109 1.03
2029.556 1.02
2058.525 1.01
2088.528 1
2119.666 0.99
2149.729 0.98
2179.411 0.97
2210.499 0.96
2244.324 0.95
2279.121 0.94
2315.000 0.93
2352.094 0.92
2388.477 0.91
2426.257 0.9
2467.545 0.89
2511.110 0.88
2554.992 0.87
2600.038 0.86
2647.774 0.85
2697.340 0.84
2748.904 0.83
2802.045 0.82
2855.118 0.81
2909.700 0.8
2915.329 0.799
2921.017 0.798
2926.754 0.797
2932.520 0.796
2938.368 0.795
2944.310 0.794
2950.305 0.793
2956.328 0.792
2960.036 0.791
2966.101 0.79
2973.133 0.789
2980.141 0.788
2987.075 0.787
2993.926 0.786
3000.742 0.785
3007.482 0.784
3014.138 0.783
3020.783 0.782
3027.407 0.781
3034.006 0.78
3040.547 0.779
3047.067 0.778
3053.543 0.777
3059.969 0.776
3066.377 0.775
3072.782 0.774
3079.185 0.773
3085.573 0.772
3091.946 0.771
3098.320 0.77
3104.679 0.769
3111.026 0.768
3117.368 0.767
3123.698 0.766
3130.070 0.765
3136.471 0.764
3142.861 0.763
3149.258 0.762
3155.666 0.761
3162.107 0.76
3168.571 0.759
3175.084 0.758
3181.652 0.757
3188.200 0.756
3202.262 0.755
3212.731 0.754
3215.749 0.753
3223.059 0.752
3230.339 0.751
3232.970 0.75
3235.780 0.749
3238.999 0.748
3242.816 0.747
3247.118 0.746
3252.061 0.745
3257.640 0.744
3263.691 0.743
3270.145 0.742
3277.070 0.741
3284.443 0.74
3291.951 0.739
3300.065 0.738
3308.628 0.737
3317.464 0.736
3326.552 0.735
3335.903 0.734
3345.495 0.733
3355.314 0.732
3365.403 0.731
3375.681 0.73
3386.157 0.729
3396.783 0.728
3407.476 0.727
3418.249 0.726
3428.534 0.725
3439.060 0.724
3449.899 0.723
3460.780 0.722
3471.664 0.721
3482.539 0.72
3493.379 0.719
3504.052 0.718
3514.703 0.717
3525.341 0.716
3536.052 0.715
3546.684 0.714
3557.152 0.713
3567.498 0.712
3577.788 0.711
3588.170 0.71
3598.034 0.709
3606.966 0.708
3616.219 0.707
3625.703 0.706
3634.897 0.705
3643.874 0.704
3652.654 0.703
3661.282 0.702
3669.715 0.701
3677.988 0.7
3686.022 0.699
3693.308 0.698
3700.509 0.697
3708.223 0.696
3715.707 0.695
3722.901 0.694
3729.927 0.693
3736.828 0.692
3743.315 0.691
3751.916 0.69
3760.350 0.689
3767.862 0.688
3775.224 0.687
3782.544 0.686
3789.846 0.685
3797.087 0.684
3804.293 0.683
3811.475 0.682
3818.656 0.681
3826.033 0.68
3833.243 0.679
3840.525 0.678
3847.894 0.677
3855.385 0.676
3863.127 0.675
3871.028 0.674
3879.171 0.673
3887.605 0.672
3895.918 0.671
3904.584 0.67
3913.535 0.669
3922.789 0.668
3932.384 0.667
3942.388 0.666
3952.874 0.665
3963.787 0.664
3975.143 0.663
3987.020 0.662
3999.456 0.661
4012.438 0.66
4025.994 0.659
4040.323 0.658
4055.319 0.657
4070.988 0.656
4087.346 0.655
4094.606 0.654
4101.944 0.653
4115.652 0.652
4124.664 0.651
4132.747 0.65
4144.736 0.649
4155.523 0.648
4166.705 0.647
4178.027 0.646
4189.556 0.645
4201.169 0.644
4212.826 0.643
4224.626 0.642
4236.582 0.641
4248.681 0.64
4260.916 0.639
4273.570 0.638
4286.163 0.637
4298.744 0.636
4311.435 0.635
4324.238 0.634
4337.121 0.633
4350.169 0.632
4363.410 0.631
4376.643 0.63
4389.923 0.629
4403.276 0.628
4416.692 0.627
4430.231 0.626
4443.894 0.625
4457.736 0.624
4471.626 0.623
4485.492 0.622
4499.371 0.621
4513.305 0.62
4527.287 0.619
4541.320 0.618
4555.593 0.617
4569.964 0.616
4584.363 0.615
4598.751 0.614
4613.144 0.613
4627.636 0.612
4642.219 0.611
4656.830 0.61
4671.486 0.609
4686.190 0.608
4700.729 0.607
4715.381 0.606
4730.339 0.605
4745.295 0.604
4760.167 0.603
4774.894 0.602
4789.768 0.601
4804.783 0.6
4819.597 0.599
4834.823 0.598
4850.719 0.597
4866.771 0.596
4882.220 0.595
4897.790 0.594
4913.486 0.593
4929.082 0.592
4944.582 0.591
4960.452 0.59
4977.620 0.589
4993.730 0.588
5009.953 0.587
5026.254 0.586
5042.668 0.585
5059.223 0.584
5075.773 0.583
5092.347 0.582
5109.029 0.581
5125.880 0.58
5142.766 0.579
5159.936 0.578
5177.229 0.577
5194.657 0.576
5212.226 0.575
5229.851 0.574
5247.561 0.573
5265.233 0.572
5282.836 0.571
5300.894 0.57
5325.807 0.569
5354.138 0.568
5367.389 0.567
5381.385 0.566
5396.068 0.565
5410.097 0.564
5424.335 0.563
5441.753 0.562
5459.978 0.561
5478.616 0.56
5497.682 0.559
5517.596 0.558
5540.202 0.557
5561.287 0.556
5580.949 0.555
5601.219 0.554
5622.020 0.553
5643.244 0.552
5664.806 0.551
5686.862 0.55
5708.330 0.549
5729.528 0.548
5752.179 0.547
5775.131 0.546
5798.568 0.545
5822.123 0.544
5845.894 0.543
5870.054 0.542
5894.687 0.541
5919.069 0.54
5943.230 0.539
5968.487 0.538
5993.769 0.537
6019.241 0.536
6044.833 0.535
6077.714 0.534
6105.328 0.533
6128.103 0.532
6151.132 0.531
6174.175 0.53
6194.541 0.529
6210.637 0.528
6238.972 0.527
6267.110 0.526
6295.218 0.525
6323.236 0.524
6351.104 0.523
6382.030 0.522
6419.424 0.521
6449.162 0.52
6471.367 0.519
6494.055 0.518
6516.598 0.517
6540.475 0.516
6564.893 0.515
6589.587 0.514
6614.525 0.513
6639.888 0.512
6665.593 0.511
6691.594 0.51
6717.948 0.509
6745.240 0.508
6772.482 0.507
6799.576 0.506
6827.530 0.505
6855.177 0.504
6882.879 0.503
6911.095 0.502
6939.977 0.501
6969.036 0.5
6998.313 0.499
7028.212 0.498
7058.127 0.497
7089.578 0.496
7121.919 0.495
7151.590 0.494
7181.793 0.493
7212.482 0.492
7247.629 0.491
7281.114 0.49
7311.410 0.489
7342.266 0.488
7373.499 0.487
7405.564 0.486
7438.401 0.485
7471.854 0.484
7505.771 0.483
7540.243 0.482
7575.792 0.481
7611.748 0.48
7648.600 0.479
7685.946 0.478
7723.886 0.477
7762.981 0.476
7802.657 0.475
7842.641 0.474
7883.567 0.473
7925.257 0.472
7967.894 0.471
8011.359 0.47
8057.201 0.469
8094.208 0.468
8121.441 0.467
8161.087 0.466
8200.891 0.465
8240.880 0.464
8276.500 0.463
8313.326 0.462
8359.109 0.461
8405.642 0.46
8450.693 0.459
8497.297 0.458
8581.304 0.457
8642.030 0.456
8668.350 0.455
8697.445 0.454
8732.193 0.453
8768.665 0.452
8802.091 0.451
8836.003 0.45
8871.354 0.449
8911.343 0.448
8953.200 0.447
8996.543 0.446
9040.926 0.445
9086.585 0.444
9134.297 0.443
9183.854 0.442
9234.311 0.441
9285.645 0.44
9338.237 0.439
9392.567 0.438
9447.446 0.437
9508.226 0.436
9567.828 0.435
9624.682 0.434
9673.942 0.433
9727.233 0.432
9781.601 0.431
9837.546 0.43
9894.761 0.429
9956.649 0.428
10027.918 0.427
10091.033 0.426
10166.718 0.425
10233.465 0.424
10296.246 0.423
10360.914 0.422
10419.486 0.421
10460.698 0.42
10511.577 0.419
10584.531 0.418
10657.263 0.417
10730.388 0.416
10803.074 0.415
10875.805 0.414
10948.252 0.413
11020.955 0.412
11093.781 0.411
11166.948 0.41
11240.587 0.409
11314.401 0.408
11387.552 0.407
11460.724 0.406
11534.811 0.405
11608.248 0.404
11681.993 0.403
11756.549 0.402
11831.619 0.401
11906.974 0.4
11982.761 0.399
12059.014 0.398
12135.643 0.397
12212.888 0.396
12289.226 0.395
12364.532 0.394
12443.027 0.393
12521.904 0.392
12601.370 0.391
12676.393 0.39
12751.624 0.389
12830.583 0.388
12910.645 0.387
12991.373 0.386
13072.566 0.385
13154.875 0.384
13238.522 0.383
13322.854 0.382
13408.609 0.381
13495.222 0.38
13583.629 0.379
13673.400 0.378
13764.380 0.377
13856.804 0.376
13950.388 0.375
14045.705 0.374
14142.436 0.373
14240.435 0.372
14341.285 0.371
14444.618 0.37
14549.865 0.369
14654.954 0.368
14761.809 0.367
14871.689 0.366
14984.147 0.365
15099.320 0.364
15217.087 0.363
15345.859 0.362
15482.766 0.361
15615.216 0.36
15750.536 0.359
15891.673 0.358
16035.563 0.357
16133.506 0.356
16234.831 0.355
16366.316 0.354
16500.641 0.353
16632.589 0.352
16764.496 0.351
16902.421 0.35
17044.605 0.349
17190.906 0.348
17337.296 0.347
17485.153 0.346
17635.318 0.345
17788.299 0.344
17944.224 0.343
18102.337 0.342
18262.763 0.341
18426.075 0.34
18591.239 0.339
18759.458 0.338
18930.800 0.337
19104.869 0.336
19275.591 0.335
19448.974 0.334
19628.013 0.333
19808.166 0.332
19988.370 0.331
20174.499 0.33
20362.346 0.329
20552.351 0.328
20745.228 0.327
20940.840 0.326
21139.322 0.325
21326.351 0.324
21521.784 0.323
21723.721 0.322
21928.371 0.321
22140.766 0.32
22369.474 0.319
22603.230 0.318
22827.943 0.317
23056.301 0.316
23288.644 0.315
23524.947 0.314
23765.588 0.313
24010.019 0.312
24258.181 0.311
24507.106 0.31
24760.542 0.309
25018.342 0.308
25280.780 0.307
25547.956 0.306
25820.147 0.305
26097.218 0.304
26379.824 0.303
26667.858 0.302
26961.149 0.301
27259.722 0.3
27563.785 0.299
27873.502 0.298
28188.978 0.297
28510.469 0.296
28837.827 0.295
29171.050 0.294
29510.347 0.293
29855.678 0.292
30207.424 0.291
30565.604 0.29
30930.242 0.289
31302.165 0.288
31680.777 0.287
32065.791 0.286
32458.230 0.285
32858.211 0.284
33265.319 0.283
33679.371 0.282
34101.289 0.281
34530.705 0.28
34967.795 0.279
35412.447 0.278
35864.610 0.277
36324.845 0.276
36793.237 0.275
37269.651 0.274
37754.080 0.273
38247.624 0.272
38750.424 0.271
39261.248 0.27
39780.165 0.269
40307.872 0.268
40844.688 0.267
41390.964 0.266
41946.896 0.265
42511.949 0.264
43086.313 0.263
43670.348 0.262
44264.262 0.261
44868.329 0.26
45482.601 0.259
46107.045 0.258
46741.657 0.257
47386.975 0.256
48043.447 0.255
48710.801 0.254
49389.411 0.253
50079.554 0.252
50781.343 0.251
51495.125 0.25
52220.891 0.249
52958.818 0.248
53708.820 0.247
54471.189 0.246
55246.827 0.245
56035.823 0.244
56838.485 0.243
57654.626 0.242
58484.676 0.241
59328.596 0.24
60186.609 0.239
61059.990 0.238
61948.538 0.237
62852.387 0.236
63771.965 0.235
64707.708 0.234
65659.701 0.233
66627.928 0.232
67613.144 0.231
68615.684 0.23
69635.217 0.229
70672.565 0.228
71728.153 0.227
72802.296 0.226
73895.474 0.225
75005.430 0.224
76134.643 0.223
77283.459 0.222
78452.228 0.221
79641.304 0.22
80851.047 0.219
82081.822 0.218
83334.000 0.217
84607.955 0.216
85904.068 0.215
87222.723 0.214
88564.311 0.213
89929.228 0.212
91317.874 0.211
92730.653 0.21
94167.977 0.209
95630.261 0.208
97117.926 0.207
98631.397 0.206
100171.105 0.205
101737.486 0.204
103330.980 0.203
104952.033 0.202
106601.096 0.201
108278.625 0.2
109985.082 0.199
111720.931 0.198
113486.645 0.197
115282.699 0.196
117109.574 0.195
118967.757 0.194
120857.739 0.193
122780.016 0.192
124735.090 0.191
126723.467 0.19
128745.659 0.189
130802.182 0.188
132893.558 0.187
135020.314 0.186
137182.980 0.185
139382.095 0.184
141618.199 0.183
143891.840 0.182
146203.569 0.181
148553.944 0.18
150943.526 0.179
153372.883 0.178
155842.587 0.177
158353.215 0.176
160905.348 0.175
