# TIME w/ LS370, calibrated against RU3000 (2018 calibration against X107797)
# Calibration data taken from 20200829 to 20201006
# Constrained by data from 0.267K to 267.7K, extrapolated elsewhere
# Calibration generated 2020-10-20 17:43:58.124316, verified monotonic
# R[Ohms] T[K]
111.373 325
111.382 324
111.393 323
111.404 322
111.415 321
111.427 320
111.440 319
111.453 318
111.467 317
111.482 316
111.496 315
111.512 314
111.528 313
111.545 312
111.562 311
111.579 310
111.598 309
111.617 308
111.636 307
111.656 306
111.677 305
111.698 304
111.719 303
111.742 302
111.764 301
111.788 300
111.812 299
111.836 298
111.861 297
111.887 296
111.913 295
111.940 294
111.967 293
111.995 292
112.023 291
112.052 290
112.082 289
112.112 288
112.142 287
112.174 286
112.205 285
112.238 284
112.271 283
112.304 282
112.338 281
112.373 280
112.408 279
112.444 278
112.480 277
112.517 276
112.554 275
112.592 274
112.631 273
112.670 272
112.709 271
112.750 270
112.790 269
112.832 268
112.867 267
112.916 266
112.965 265
113.014 264
113.064 263
113.113 262
113.162 261
113.212 260
113.261 259
113.310 258
113.360 257
113.409 256
113.458 255
113.508 254
113.557 253
113.606 252
113.655 251
113.705 250
113.754 249
113.803 248
113.861 247
113.924 246
113.987 245
114.050 244
114.113 243
114.176 242
114.239 241
114.302 240
114.365 239
114.428 238
114.491 237
114.554 236
114.617 235
114.680 234
114.743 233
114.806 232
114.869 231
114.932 230
114.995 229
115.058 228
115.121 227
115.184 226
115.247 225
115.310 224
115.373 223
115.436 222
115.499 221
115.562 220
115.625 219
115.688 218
115.751 217
115.814 216
115.877 215
115.940 214
116.003 213
116.066 212
116.129 211
116.192 210
116.249 209
116.327 208
116.406 207
116.479 206
116.557 205
116.646 204
116.739 203
116.815 202
116.907 201
116.977 200
117.061 199
117.135 198
117.224 197
117.280 196
117.301 195
117.383 194
117.472 193
117.495 192
117.548 191
117.634 190
117.699 189
117.759 188
117.825 187
117.872 186
117.959 185
118.053 184
118.144 183
118.247 182
118.383 181
118.459 180
118.502 179
118.596 178
118.674 177
118.772 176
118.882 175
118.936 174
119.017 173
119.144 172
119.200 171
119.248 170
119.371 169
119.446 168
119.531 167
119.630 166
119.761 165
119.870 164
119.945 163
120.032 162
120.091 161
120.197 160
120.322 159
120.442 158
120.570 157
120.690 156
120.778 155
120.873 154
120.979 153
121.079 152
121.173 151
121.332 150
121.419 149
121.524 148
121.620 147
121.730 146
121.844 145
121.975 144
122.129 143
122.261 142
122.371 141
122.462 140
122.602 139
122.750 138
122.881 137
123.024 136
123.160 135
123.296 134
123.426 133
123.538 132
123.672 131
123.807 130
123.909 129
124.046 128
124.206 127
124.317 126
124.453 125
124.603 124
124.760 123
124.911 122
125.034 121
125.210 120
125.382 119
125.526 118
125.661 117
125.847 116
126.036 115
126.208 114
126.384 113
126.537 112
126.678 111
126.835 110
127.022 109
127.234 108
127.423 107
127.616 106
127.784 105
127.954 104
128.154 103
128.320 102
128.824 101
129.380 100
129.609 99
129.839 98
130.060 97
130.290 96
130.523 95
130.722 94
130.939 93
131.167 92
131.393 91
131.613 90
131.824 89
132.073 88
132.358 87
132.621 86
132.891 85
133.164 84
133.433 83
133.714 82
134.007 81
134.311 80
134.596 79
134.905 78
135.225 77
135.497 76
135.786 75
136.125 74
136.462 73
136.772 72
137.119 71
137.495 70
137.571 69.8
137.642 69.6
137.709 69.4
137.773 69.2
137.838 69
137.895 68.8
137.947 68.6
138.062 68.4
138.154 68.2
138.235 68
138.296 67.8
138.358 67.6
138.419 67.4
138.480 67.2
138.541 67
138.602 66.8
138.663 66.6
138.725 66.4
138.786 66.2
138.847 66
138.963 65.8
139.024 65.6
139.093 65.4
139.181 65.2
139.254 65
139.332 64.8
139.363 64.6
139.366 64.4
139.410 64.2
139.537 64
139.609 63.8
139.721 63.6
139.792 63.4
139.872 63.2
139.924 63
140.012 62.8
140.150 62.6
140.207 62.4
140.310 62.2
140.494 62
140.567 61.8
140.666 61.6
140.772 61.4
140.865 61.2
140.949 61
141.019 60.8
141.084 60.6
141.172 60.4
141.272 60.2
141.351 60
141.435 59.8
141.514 59.6
141.582 59.4
141.642 59.2
141.711 59
141.843 58.8
141.933 58.6
141.993 58.4
142.070 58.2
142.149 58
142.212 57.8
142.284 57.6
142.369 57.4
142.441 57.2
142.559 57
142.683 56.8
142.762 56.6
142.880 56.4
142.966 56.2
143.070 56
143.198 55.8
143.246 55.6
143.313 55.4
143.428 55.2
143.547 55
143.613 54.8
143.684 54.6
143.760 54.4
143.831 54.2
143.914 54
144.062 53.8
144.194 53.6
144.272 53.4
144.377 53.2
144.524 53
144.676 52.8
144.784 52.6
144.848 52.4
144.957 52.2
145.059 52
145.166 51.8
145.280 51.6
145.413 51.4
145.579 51.2
145.660 51
145.711 50.8
145.815 50.6
145.902 50.4
146.005 50.2
146.183 50
146.268 49.8
146.348 49.6
146.446 49.4
146.551 49.2
146.662 49
146.794 48.8
146.969 48.6
147.108 48.4
147.266 48.2
147.440 48
147.551 47.8
147.654 47.6
147.757 47.4
147.855 47.2
147.919 47
148.000 46.8
148.129 46.6
148.209 46.4
148.349 46.2
148.496 46
148.656 45.8
148.774 45.6
148.893 45.4
149.005 45.2
149.101 45
149.211 44.8
149.339 44.6
149.467 44.4
149.586 44.2
149.738 44
149.886 43.8
150.045 43.6
150.211 43.4
150.374 43.2
150.539 43
150.705 42.8
150.853 42.6
150.958 42.4
151.076 42.2
151.245 42
151.400 41.8
151.503 41.6
151.621 41.4
151.781 41.2
151.939 41
152.043 40.8
152.168 40.6
152.379 40.4
152.583 40.2
152.704 40
152.819 39.8
152.958 39.6
153.106 39.4
153.217 39.2
153.391 39
153.597 38.8
153.799 38.6
153.996 38.4
154.178 38.2
154.380 38
154.506 37.8
154.666 37.6
154.856 37.4
155.048 37.2
155.197 37
155.356 36.8
155.525 36.6
155.679 36.4
155.814 36.2
155.949 36
156.120 35.8
156.309 35.6
156.511 35.4
156.623 35.2
156.736 35
156.946 34.8
157.156 34.6
157.356 34.4
157.576 34.2
157.790 34
158.018 33.8
158.221 33.6
158.386 33.4
158.649 33.2
158.869 33
159.043 32.8
159.229 32.6
159.438 32.4
159.691 32.2
159.899 32
160.097 31.8
160.284 31.6
160.515 31.4
160.758 31.2
160.933 31
161.140 30.8
161.400 30.6
161.595 30.4
161.797 30.2
162.047 30
162.170 29.9
162.285 29.8
162.401 29.7
162.516 29.6
162.630 29.5
162.744 29.4
162.859 29.3
162.976 29.2
163.098 29.1
163.220 29
163.343 28.9
163.498 28.8
163.655 28.7
163.801 28.6
163.928 28.5
164.056 28.4
164.188 28.3
164.390 28.2
164.592 28.1
164.742 28
164.886 27.9
165.030 27.8
165.209 27.7
165.398 27.6
165.570 27.5
165.701 27.4
165.832 27.3
165.964 27.2
166.074 27.1
166.180 27
166.285 26.9
166.390 26.8
166.500 26.7
166.648 26.6
166.796 26.5
166.943 26.4
167.080 26.3
167.212 26.2
167.343 26.1
167.474 26
167.612 25.9
167.752 25.8
167.891 25.7
168.030 25.6
168.164 25.5
168.298 25.4
168.432 25.3
168.567 25.2
168.752 25.1
168.941 25
169.130 24.9
169.348 24.8
169.568 24.7
169.770 24.6
169.938 24.5
170.106 24.4
170.273 24.3
170.422 24.2
170.562 24.1
170.703 24
170.844 23.9
170.981 23.8
171.111 23.7
171.241 23.6
171.371 23.5
171.502 23.4
171.694 23.3
171.927 23.2
172.161 23.1
172.359 23
172.546 22.9
172.732 22.8
172.917 22.7
173.092 22.6
173.268 22.5
173.444 22.4
173.609 22.3
173.758 22.2
173.907 22.1
174.055 22
174.204 21.9
174.409 21.8
174.650 21.7
174.891 21.6
175.122 21.5
175.346 21.4
175.569 21.3
175.799 21.2
176.045 21.1
176.290 21
176.530 20.9
176.725 20.8
176.921 20.7
177.117 20.6
177.317 20.5
177.539 20.4
177.761 20.3
177.983 20.2
178.206 20.1
178.432 20
178.658 19.9
178.884 19.8
179.093 19.7
179.301 19.6
179.508 19.5
179.716 19.4
179.958 19.3
180.208 19.2
180.457 19.1
180.699 19
180.933 18.9
181.166 18.8
181.400 18.7
181.646 18.6
181.899 18.5
182.152 18.4
182.405 18.3
182.656 18.2
182.907 18.1
183.159 18
183.437 17.9
183.744 17.8
184.051 17.7
184.343 17.6
184.619 17.5
184.895 17.4
185.176 17.3
185.497 17.2
185.817 17.1
186.131 17
186.395 16.9
186.659 16.8
186.923 16.7
187.206 16.6
187.510 16.5
187.813 16.4
188.131 16.3
188.485 16.2
188.839 16.1
189.195 16
189.554 15.9
189.913 15.8
190.268 15.7
190.622 15.6
190.973 15.5
191.299 15.4
191.625 15.3
191.950 15.2
192.268 15.1
192.586 15
192.903 14.9
193.212 14.8
193.522 14.7
193.836 14.6
194.178 14.5
194.519 14.4
194.874 14.3
195.248 14.2
195.622 14.1
196.068 14
196.520 13.9
196.939 13.8
197.357 13.7
197.777 13.6
198.197 13.5
198.646 13.4
199.103 13.3
199.577 13.2
200.053 13.1
200.535 13
201.011 12.9
201.482 12.8
201.984 12.7
202.452 12.6
202.875 12.5
203.387 12.4
203.909 12.3
204.371 12.2
204.849 12.1
205.352 12
205.911 11.9
206.517 11.8
206.983 11.7
207.506 11.6
208.082 11.5
208.679 11.4
209.251 11.3
209.861 11.2
210.508 11.1
211.049 11
211.653 10.9
212.340 10.8
213.014 10.7
213.659 10.6
214.312 10.5
214.932 10.4
215.584 10.3
216.272 10.2
216.900 10.1
217.545 10
218.347 9.9
219.095 9.8
219.850 9.7
220.637 9.6
221.401 9.5
222.258 9.4
223.152 9.3
224.000 9.2
224.847 9.1
225.705 9
226.577 8.9
227.493 8.8
228.449 8.7
229.403 8.6
230.316 8.5
231.242 8.4
232.172 8.3
233.052 8.2
233.967 8.1
235.041 8
235.216 7.98
235.356 7.96
235.491 7.94
235.663 7.92
235.873 7.9
236.176 7.88
236.529 7.86
236.789 7.84
237.028 7.82
237.256 7.8
237.544 7.78
237.876 7.76
238.174 7.74
238.509 7.72
238.758 7.7
238.948 7.68
239.244 7.66
239.596 7.64
239.923 7.62
240.142 7.6
240.368 7.58
240.663 7.56
240.859 7.54
241.058 7.52
241.363 7.5
241.563 7.48
241.741 7.46
242.011 7.44
242.255 7.42
242.478 7.4
242.674 7.38
242.877 7.36
243.065 7.34
243.295 7.32
243.589 7.3
243.795 7.28
243.991 7.26
244.228 7.24
244.462 7.22
244.660 7.2
244.851 7.18
245.097 7.16
245.312 7.14
245.545 7.12
245.756 7.1
245.908 7.08
246.116 7.06
246.404 7.04
246.690 7.02
246.929 7
247.231 6.98
247.523 6.96
247.778 6.94
248.150 6.92
248.499 6.9
248.798 6.88
249.137 6.86
249.504 6.84
249.852 6.82
250.157 6.8
250.508 6.78
250.834 6.76
251.180 6.74
251.569 6.72
251.917 6.7
252.214 6.68
252.529 6.66
252.859 6.64
253.180 6.62
253.502 6.6
253.846 6.58
254.161 6.56
254.414 6.54
254.715 6.52
255.050 6.5
255.394 6.48
255.728 6.46
256.031 6.44
256.356 6.42
256.671 6.4
256.938 6.38
257.211 6.36
257.541 6.34
257.885 6.32
258.202 6.3
258.503 6.28
258.820 6.26
259.176 6.24
259.511 6.22
259.796 6.2
260.084 6.18
260.352 6.16
260.637 6.14
261.035 6.12
261.384 6.1
261.728 6.08
262.122 6.06
262.497 6.04
262.913 6.02
263.322 6
263.812 5.98
264.374 5.96
264.953 5.94
265.537 5.92
266.056 5.9
266.471 5.88
266.835 5.86
267.198 5.84
267.604 5.82
268.008 5.8
268.376 5.78
268.799 5.76
269.178 5.74
269.565 5.72
269.969 5.7
270.342 5.68
270.718 5.66
271.104 5.64
271.503 5.62
271.903 5.6
272.278 5.58
272.657 5.56
273.102 5.54
273.510 5.52
273.874 5.5
274.249 5.48
274.626 5.46
275.053 5.44
275.499 5.42
275.907 5.4
276.340 5.38
276.794 5.36
277.237 5.34
277.712 5.32
278.153 5.3
278.600 5.28
279.106 5.26
279.558 5.24
280.008 5.22
280.493 5.2
280.915 5.18
281.392 5.16
281.889 5.14
282.350 5.12
282.813 5.1
283.243 5.08
283.710 5.06
284.219 5.04
284.717 5.02
285.256 5
285.768 4.98
286.239 4.96
286.742 4.94
287.207 4.92
287.712 4.9
288.254 4.88
288.759 4.86
289.254 4.84
289.757 4.82
290.276 4.8
290.831 4.78
291.412 4.76
291.974 4.74
292.513 4.72
293.087 4.7
293.702 4.68
294.322 4.66
294.986 4.64
295.658 4.62
296.304 4.6
296.879 4.58
297.519 4.56
298.132 4.54
298.704 4.52
299.339 4.5
299.924 4.48
300.550 4.46
301.180 4.44
301.791 4.42
302.427 4.4
303.188 4.38
304.000 4.36
304.774 4.34
305.560 4.32
306.315 4.3
307.011 4.28
307.664 4.26
308.415 4.24
309.099 4.22
309.706 4.2
310.386 4.18
311.076 4.16
311.764 4.14
312.414 4.12
313.097 4.1
313.888 4.08
314.792 4.06
315.658 4.04
316.479 4.02
317.325 4
318.109 3.98
318.932 3.96
319.810 3.94
320.589 3.92
321.394 3.9
322.299 3.88
323.127 3.86
323.975 3.84
324.830 3.82
325.696 3.8
326.540 3.78
327.361 3.76
328.203 3.74
328.935 3.72
329.813 3.7
330.864 3.68
331.823 3.66
332.773 3.64
333.697 3.62
334.650 3.6
335.734 3.58
336.781 3.56
337.798 3.54
338.784 3.52
339.774 3.5
340.888 3.48
342.034 3.46
343.094 3.44
344.144 3.42
345.262 3.4
346.427 3.38
347.484 3.36
348.633 3.34
349.863 3.32
351.032 3.3
352.191 3.28
353.409 3.26
354.627 3.24
355.856 3.22
357.189 3.2
358.539 3.18
359.882 3.16
361.237 3.14
362.630 3.12
363.989 3.1
365.290 3.08
366.571 3.06
368.013 3.04
369.578 3.02
371.090 3
372.521 2.98
373.960 2.96
375.522 2.94
376.937 2.92
378.326 2.9
379.974 2.88
381.624 2.86
383.202 2.84
384.781 2.82
386.579 2.8
388.443 2.78
390.143 2.76
391.936 2.74
393.961 2.72
395.946 2.7
397.764 2.68
399.587 2.66
401.338 2.64
403.181 2.62
405.165 2.6
407.090 2.58
409.108 2.56
411.024 2.54
412.868 2.52
414.799 2.5
416.849 2.48
419.240 2.46
421.665 2.44
423.943 2.42
426.354 2.4
428.916 2.38
431.243 2.36
433.519 2.34
436.212 2.32
438.810 2.3
441.210 2.28
443.954 2.26
446.990 2.24
449.786 2.22
452.276 2.2
454.952 2.18
457.834 2.16
460.393 2.14
462.909 2.12
465.903 2.1
469.151 2.08
472.680 2.06
476.450 2.04
480.014 2.02
483.729 2
485.707 1.99
487.829 1.98
490.042 1.97
492.226 1.96
494.347 1.95
496.528 1.94
498.654 1.93
500.738 1.92
502.899 1.91
505.106 1.9
507.282 1.89
509.492 1.88
511.725 1.87
513.953 1.86
516.191 1.85
518.530 1.84
520.806 1.83
522.983 1.82
525.234 1.81
527.516 1.8
529.820 1.79
532.042 1.78
534.220 1.77
536.427 1.76
538.710 1.75
541.135 1.74
543.534 1.73
545.814 1.72
547.956 1.71
550.120 1.7
552.448 1.69
554.880 1.68
557.349 1.67
559.833 1.66
562.356 1.65
564.835 1.64
567.533 1.63
570.396 1.62
573.277 1.61
576.284 1.6
579.380 1.59
582.541 1.58
585.687 1.57
588.863 1.56
592.023 1.55
595.172 1.54
598.501 1.53
601.926 1.52
605.405 1.51
608.858 1.5
612.248 1.49
615.678 1.48
619.324 1.47
623.182 1.46
627.118 1.45
630.855 1.44
634.510 1.43
638.412 1.42
642.500 1.41
646.823 1.4
651.289 1.39
655.638 1.38
659.609 1.37
663.555 1.36
668.031 1.35
672.696 1.34
677.580 1.33
682.862 1.32
688.032 1.31
692.726 1.3
697.316 1.29
702.366 1.28
707.759 1.27
713.374 1.26
719.230 1.25
725.086 1.24
730.594 1.23
735.708 1.22
741.221 1.21
747.404 1.2
753.906 1.19
760.967 1.18
768.293 1.17
775.189 1.16
781.571 1.15
787.955 1.14
794.707 1.13
801.935 1.12
809.829 1.11
818.183 1.1
826.442 1.09
834.557 1.08
842.621 1.07
851.319 1.06
859.924 1.05
868.486 1.04
877.309 1.03
886.301 1.02
895.692 1.01
905.752 1
917.055 0.99
928.119 0.98
938.282 0.97
948.643 0.96
959.225 0.95
970.732 0.94
982.879 0.93
996.462 0.92
1009.833 0.91
1021.071 0.9
1033.158 0.89
1046.812 0.88
1062.108 0.87
1078.809 0.86
1096.237 0.85
1113.266 0.84
1127.110 0.83
1142.881 0.82
1160.059 0.81
1179.273 0.8
1181.273 0.799
1183.284 0.798
1185.305 0.797
1187.337 0.796
1189.377 0.795
1191.426 0.794
1193.482 0.793
1195.544 0.792
1197.608 0.791
1199.665 0.79
1201.700 0.789
1203.758 0.788
1205.853 0.787
1207.978 0.786
1210.108 0.785
1212.219 0.784
1214.341 0.783
1216.475 0.782
1218.619 0.781
1220.771 0.78
1222.930 0.779
1225.094 0.778
1227.263 0.777
1229.435 0.776
1231.610 0.775
1233.789 0.774
1235.971 0.773
1238.122 0.772
1240.120 0.771
1242.006 0.77
1244.182 0.769
1246.478 0.768
1248.719 0.767
1250.910 0.766
1253.085 0.765
1255.263 0.764
1257.443 0.763
1259.624 0.762
1261.804 0.761
1263.986 0.76
1266.169 0.759
1268.356 0.758
1270.549 0.757
1272.748 0.756
1274.954 0.755
1277.175 0.754
1279.416 0.753
1281.687 0.752
1283.989 0.751
1286.287 0.75
1288.576 0.749
1290.851 0.748
1293.105 0.747
1295.325 0.746
1297.517 0.745
1299.703 0.744
1301.886 0.743
1304.078 0.742
1306.336 0.741
1308.617 0.74
1310.891 0.739
1313.161 0.738
1315.427 0.737
1317.690 0.736
1319.962 0.735
1322.249 0.734
1324.553 0.733
1326.882 0.732
1329.239 0.731
1331.616 0.73
1334.005 0.729
1336.404 0.728
1338.819 0.727
1341.249 0.726
1343.690 0.725
1346.130 0.724
1348.573 0.723
1351.022 0.722
1353.480 0.721
1355.952 0.72
1358.439 0.719
1360.944 0.718
1363.481 0.717
1366.064 0.716
1368.687 0.715
1371.344 0.714
1374.031 0.713
1376.743 0.712
1379.502 0.711
1382.315 0.71
1385.156 0.709
1387.983 0.708
1390.805 0.707
1393.616 0.706
1396.436 0.705
1399.268 0.704
1402.110 0.703
1404.967 0.702
1407.836 0.701
1410.715 0.7
1413.603 0.699
1416.498 0.698
1419.398 0.697
1422.301 0.696
1425.206 0.695
1428.096 0.694
1430.950 0.693
1433.776 0.692
1436.660 0.691
1439.592 0.69
1442.506 0.689
1445.442 0.688
1448.370 0.687
1451.276 0.686
1454.161 0.685
1457.047 0.684
1460.047 0.683
1463.146 0.682
1466.316 0.681
1469.530 0.68
1472.704 0.679
1475.839 0.678
1478.936 0.677
1481.995 0.676
1485.016 0.675
1488.000 0.674
1490.948 0.673
1493.852 0.672
1496.758 0.671
1499.842 0.67
1503.169 0.669
1506.338 0.668
1509.410 0.667
1512.491 0.666
1515.548 0.665
1518.663 0.664
1521.819 0.663
1525.011 0.662
1528.233 0.661
1531.482 0.66
1534.752 0.659
1538.038 0.658
1541.338 0.657
1544.644 0.656
1547.956 0.655
1551.278 0.654
1554.609 0.653
1557.946 0.652
1561.291 0.651
1564.645 0.65
1568.010 0.649
1571.388 0.648
1574.780 0.647
1578.190 0.646
1581.631 0.645
1585.111 0.644
1588.637 0.643
1592.217 0.642
1595.844 0.641
1599.440 0.64
1603.014 0.639
1606.596 0.638
1610.193 0.637
1613.839 0.636
1617.559 0.635
1621.342 0.634
1625.179 0.633
1629.062 0.632
1632.982 0.631
1636.935 0.63
1640.913 0.629
1644.894 0.628
1648.871 0.627
1652.839 0.626
1656.804 0.625
1660.771 0.624
1664.753 0.623
1668.758 0.622
1672.789 0.621
1676.851 0.62
1680.947 0.619
1685.083 0.618
1689.266 0.617
1693.200 0.616
1697.079 0.615
1701.319 0.614
1705.782 0.613
1710.262 0.612
1714.744 0.611
1719.176 0.61
1723.564 0.609
1727.930 0.608
1732.296 0.607
1736.772 0.606
1741.345 0.605
1745.918 0.604
1750.488 0.603
1755.052 0.602
1759.605 0.601
1764.135 0.6
1768.622 0.599
1773.082 0.598
1777.518 0.597
1781.941 0.596
1786.350 0.595
1790.739 0.594
1795.123 0.593
1799.539 0.592
1804.009 0.591
1808.454 0.59
1812.868 0.589
1817.317 0.588
1821.818 0.587
1826.389 0.586
1831.042 0.585
1835.800 0.584
1840.689 0.583
1845.620 0.582
1850.535 0.581
1855.414 0.58
1860.261 0.579
1865.160 0.578
1870.083 0.577
1875.034 0.576
1880.014 0.575
1885.032 0.574
1890.073 0.573
1895.109 0.572
1900.198 0.571
1905.353 0.57
1910.526 0.569
1915.733 0.568
1920.995 0.567
1926.230 0.566
1931.533 0.565
1936.984 0.564
1942.475 0.563
1947.998 0.562
1953.557 0.561
1959.232 0.56
1964.910 0.559
1970.637 0.558
1976.426 0.557
1982.259 0.556
1988.083 0.555
1994.000 0.554
1999.930 0.553
2005.899 0.552
2011.841 0.551
2017.843 0.55
2023.943 0.549
2029.957 0.548
2036.130 0.547
2042.390 0.546
2048.617 0.545
2054.872 0.544
2061.128 0.543
2067.405 0.542
2073.708 0.541
2080.049 0.54
2086.383 0.539
2092.852 0.538
2099.467 0.537
2106.145 0.536
2112.803 0.535
2119.017 0.534
2124.735 0.533
2131.961 0.532
2139.187 0.531
2146.451 0.53
2153.527 0.529
2160.708 0.528
2167.896 0.527
2175.099 0.526
2182.346 0.525
2189.455 0.524
2196.557 0.523
2203.665 0.522
2210.757 0.521
2217.827 0.52
2224.874 0.519
2231.901 0.518
2238.997 0.517
2246.182 0.516
2253.675 0.515
2261.365 0.514
2268.992 0.513
2276.518 0.512
2283.987 0.511
2291.372 0.51
2298.883 0.509
2306.533 0.508
2314.443 0.507
2322.389 0.506
2330.211 0.505
2338.157 0.504
2346.226 0.503
2354.252 0.502
2362.252 0.501
2370.251 0.5
2378.435 0.499
2385.734 0.498
2393.756 0.497
2402.659 0.496
2411.349 0.495
2420.113 0.494
2428.945 0.493
2437.850 0.492
2446.803 0.491
2455.882 0.49
2464.851 0.489
2473.735 0.488
2482.754 0.487
2491.866 0.486
2501.120 0.485
2509.847 0.484
2517.915 0.483
2527.278 0.482
2537.019 0.481
2546.768 0.48
2556.443 0.479
2566.096 0.478
2575.755 0.477
2585.378 0.476
2595.143 0.475
2605.065 0.474
2614.927 0.473
2624.595 0.472
2634.237 0.471
2643.875 0.47
2653.603 0.469
2663.515 0.468
2673.263 0.467
2683.163 0.466
2693.207 0.465
2702.937 0.464
2712.756 0.463
2722.667 0.462
2732.837 0.461
2743.078 0.46
2753.135 0.459
2763.354 0.458
2773.688 0.457
2784.020 0.456
2794.789 0.455
2805.458 0.454
2816.054 0.453
2826.829 0.452
2837.737 0.451
2848.748 0.45
2859.853 0.449
2871.042 0.448
2882.519 0.447
2894.037 0.446
2905.482 0.445
2917.248 0.444
2928.881 0.443
2940.700 0.442
2952.684 0.441
2965.145 0.44
2977.435 0.439
2989.671 0.438
3001.995 0.437
3014.459 0.436
3026.988 0.435
3039.584 0.434
3052.942 0.433
3067.524 0.432
3081.143 0.431
3094.872 0.43
3108.741 0.429
3122.947 0.428
3137.150 0.427
3151.665 0.426
3166.283 0.425
3180.770 0.424
3195.432 0.423
3210.351 0.422
3225.453 0.421
3240.656 0.42
3255.978 0.419
3271.472 0.418
3287.179 0.417
3302.976 0.416
3318.790 0.415
3334.748 0.414
3350.899 0.413
3367.080 0.412
3383.300 0.411
3399.684 0.41
3416.319 0.409
3433.036 0.408
3449.875 0.407
3466.553 0.406
3483.350 0.405
3500.550 0.404
3517.696 0.403
3534.698 0.402
3551.628 0.401
3568.679 0.4
3586.177 0.399
3603.718 0.398
3622.612 0.397
3641.681 0.396
3660.292 0.395
3678.545 0.394
3696.953 0.393
3715.457 0.392
3734.174 0.391
3753.070 0.39
3771.993 0.389
3791.045 0.388
3810.369 0.387
3829.827 0.386
3849.449 0.385
3869.062 0.384
3889.658 0.383
3911.665 0.382
3932.819 0.381
3953.829 0.38
3975.014 0.379
3996.605 0.378
4018.409 0.377
4040.398 0.376
4062.854 0.375
4085.375 0.374
4108.033 0.373
4130.970 0.372
4154.304 0.371
4177.843 0.37
4201.601 0.369
4225.615 0.368
4249.803 0.367
4274.489 0.366
4299.211 0.365
4324.086 0.364
4349.604 0.363
4375.397 0.362
4401.438 0.361
4427.584 0.36
4454.038 0.359
4480.965 0.358
4508.145 0.357
4535.670 0.356
4563.677 0.355
4591.531 0.354
4619.826 0.353
4648.586 0.352
4677.559 0.351
4706.765 0.35
4736.470 0.349
4766.572 0.348
4796.924 0.347
4827.587 0.346
4858.535 0.345
4890.064 0.344
4921.827 0.343
4954.063 0.342
4986.664 0.341
5019.582 0.34
5052.490 0.339
5085.966 0.338
5120.039 0.337
5154.471 0.336
5189.116 0.335
5224.258 0.334
5260.003 0.333
5296.210 0.332
5332.851 0.331
5369.971 0.33
5407.525 0.329
5445.502 0.328
5483.870 0.327
5522.698 0.326
5561.920 0.325
5601.688 0.324
5642.141 0.323
5683.152 0.322
5724.714 0.321
5766.798 0.32
5809.259 0.319
5852.348 0.318
5896.163 0.317
5940.178 0.316
5984.840 0.315
6030.151 0.314
6076.125 0.313
6122.797 0.312
6170.169 0.311
6218.257 0.31
6267.049 0.309
6316.530 0.308
6366.748 0.307
6417.649 0.306
6469.380 0.305
6521.925 0.304
6575.068 0.303
6628.948 0.302
6683.699 0.301
6739.510 0.3
6796.312 0.299
6853.766 0.298
6912.007 0.297
6971.074 0.296
7030.634 0.295
7090.675 0.294
7152.154 0.293
7214.514 0.292
7277.829 0.291
7341.970 0.29
7406.958 0.289
7472.814 0.288
7539.702 0.287
7607.572 0.286
7676.382 0.285
7746.102 0.284
7816.802 0.283
7888.262 0.282
7960.547 0.281
8033.961 0.28
8108.409 0.279
8183.893 0.278
8260.295 0.277
8337.793 0.276
8416.434 0.275
8496.022 0.274
8576.773 0.273
8658.530 0.272
8741.270 0.271
8825.056 0.27
8910.065 0.269
8996.343 0.268
9083.769 0.267
9172.317 0.266
9262.002 0.265
9352.953 0.264
9445.091 0.263
9538.414 0.262
9632.973 0.261
9728.846 0.26
9826.019 0.259
9924.448 0.258
10024.196 0.257
10125.328 0.256
10227.775 0.255
10331.510 0.254
10436.672 0.253
10543.265 0.252
10651.245 0.251
10760.732 0.25
10871.756 0.249
10984.191 0.248
11098.098 0.247
11213.614 0.246
11330.714 0.245
11449.455 0.244
11569.711 0.243
11691.501 0.242
11815.049 0.241
11940.294 0.24
12067.328 0.239
12196.079 0.238
12326.554 0.237
12458.821 0.236
12592.959 0.235
12729.062 0.234
12867.007 0.233
13006.805 0.232
13148.522 0.231
13292.160 0.23
13437.692 0.229
13585.267 0.228
13734.847 0.227
13886.559 0.226
14040.498 0.225
14196.168 0.224
14353.956 0.223
14513.891 0.222
14676.003 0.221
14840.322 0.22
15006.879 0.219
15175.704 0.218
15346.828 0.217
15520.284 0.216
15696.104 0.215
15874.319 0.214
16054.963 0.213
16238.070 0.212
16423.671 0.211
16611.803 0.21
16802.499 0.209
16995.794 0.208
17191.723 0.207
17390.323 0.206
17591.628 0.205
17795.676 0.204
18002.504 0.203
18212.148 0.202
18424.646 0.201
18640.036 0.2
18858.358 0.199
19079.648 0.198
19303.948 0.197
19531.296 0.196
19761.732 0.195
19995.297 0.194
20232.032 0.193
20471.977 0.192
20715.175 0.191
20961.668 0.19
21211.497 0.189
21464.706 0.188
21721.338 0.187
21981.436 0.186
22245.045 0.185
22512.208 0.184
22782.971 0.183
23057.379 0.182
23335.477 0.181
23617.312 0.18
23902.929 0.179
24192.376 0.178
24485.699 0.177
24782.947 0.176
25084.167 0.175
