# TIME w/ LS370, calibrated against X107797
# Calibration data taken from 20200112 to 20200422
# Constrained by data from 0.238K to 292.1K, extrapolated elsewhere
# Calibration generated 2020-08-12 21:23:22.594805, verified monotonic
# R[Ohms] T[K]
33.401 325
33.452 324
33.504 323
33.558 322
33.612 321
33.667 320
33.723 319
33.780 318
33.838 317
33.896 316
33.956 315
34.016 314
34.078 313
34.140 312
34.203 311
34.267 310
34.332 309
34.398 308
34.464 307
34.532 306
34.600 305
34.670 304
34.740 303
34.811 302
34.883 301
34.956 300
35.030 299
35.105 298
35.180 297
35.257 296
35.334 295
35.412 294
35.491 293
35.527 292
35.610 291
35.699 290
35.788 289
35.875 288
35.963 287
36.053 286
36.144 285
36.237 284
36.329 283
36.421 282
36.514 281
36.606 280
36.701 279
36.797 278
36.892 277
36.988 276
37.085 275
37.184 274
37.282 273
37.381 272
37.482 271
37.582 270
37.682 269
37.784 268
37.888 267
37.989 266
38.092 265
38.198 264
38.306 263
38.413 262
38.520 261
38.627 260
38.734 259
38.843 258
38.952 257
39.062 256
39.176 255
39.289 254
39.403 253
39.519 252
39.630 251
39.745 250
39.862 249
39.979 248
40.101 247
40.220 246
40.336 245
40.456 244
40.581 243
40.704 242
40.825 241
40.948 240
41.077 239
41.205 238
41.328 237
41.459 236
41.591 235
41.719 234
41.847 233
41.978 232
42.111 231
42.247 230
42.384 229
42.520 228
42.657 227
42.794 226
42.931 225
43.073 224
43.217 223
43.359 222
43.504 221
43.650 220
43.796 219
43.942 218
44.089 217
44.244 216
44.395 215
44.543 214
44.699 213
44.856 212
45.010 211
45.166 210
45.323 209
45.483 208
45.647 207
45.808 206
45.971 205
46.136 204
46.302 203
46.470 202
46.639 201
46.811 200
46.986 199
47.160 198
47.334 197
47.516 196
47.694 195
47.871 194
48.051 193
48.235 192
48.420 191
48.606 190
48.793 189
48.982 188
49.177 187
49.372 186
49.569 185
49.764 184
49.961 183
50.161 182
50.363 181
50.572 180
50.775 179
50.980 178
51.194 177
51.403 176
51.615 175
51.834 174
52.053 173
52.270 172
52.496 171
52.723 170
52.943 169
53.171 168
53.402 167
53.632 166
53.840 165
54.052 164
54.288 163
54.533 162
54.777 161
55.019 160
55.272 159
55.521 158
55.771 157
56.028 156
56.286 155
56.554 154
56.825 153
57.093 152
57.362 151
57.658 150
57.966 149
58.257 148
58.541 147
58.826 146
59.111 145
59.398 144
59.691 143
59.990 142
60.298 141
60.609 140
60.909 139
61.224 138
61.537 137
61.858 136
62.185 135
62.500 134
62.838 133
63.173 132
63.505 131
63.851 130
64.157 129
64.466 128
64.825 127
65.182 126
65.540 125
65.903 124
66.275 123
66.659 122
67.042 121
67.436 120
67.826 119
68.207 118
68.608 117
69.027 116
69.445 115
69.900 114
70.359 113
70.795 112
71.238 111
71.682 110
72.124 109
72.570 108
73.034 107
73.500 106
73.972 105
74.450 104
74.944 103
75.437 102
75.924 101
76.436 100
76.945 99
77.463 98
78.010 97
78.557 96
79.098 95
79.644 94
80.220 93
80.811 92
81.400 91
81.979 90
82.584 89
83.213 88
83.836 87
84.454 86
85.089 85
85.754 84
86.408 83
87.075 82
87.789 81
88.508 80
89.232 79
89.974 78
90.740 77
91.498 76
92.262 75
93.048 74
93.859 73
94.696 72
95.536 71
96.397 70
96.571 69.8
96.746 69.6
96.921 69.4
97.095 69.2
97.275 69
97.460 68.8
97.624 68.6
97.805 68.4
97.977 68.2
98.164 68
98.352 67.8
98.531 67.6
98.722 67.4
98.896 67.2
99.093 67
99.272 66.8
99.472 66.6
99.661 66.4
99.848 66.2
100.048 66
100.210 65.8
100.411 65.6
100.606 65.4
100.811 65.2
101.003 65
101.191 64.8
101.382 64.6
101.558 64.4
101.755 64.2
101.957 64
102.169 63.8
102.372 63.6
102.568 63.4
102.776 63.2
102.980 63
103.184 62.8
103.389 62.6
103.582 62.4
103.792 62.2
104.014 62
104.232 61.8
104.437 61.6
104.648 61.4
104.860 61.2
105.065 61
105.276 60.8
105.496 60.6
105.722 60.4
105.940 60.2
106.150 60
106.369 59.8
106.588 59.6
106.812 59.4
107.026 59.2
107.248 59
107.474 58.8
107.703 58.6
107.939 58.4
108.165 58.2
108.384 58
108.604 57.8
108.850 57.6
109.105 57.4
109.325 57.2
109.557 57
109.787 56.8
110.029 56.6
110.263 56.4
110.500 56.2
110.742 56
110.983 55.8
111.232 55.6
111.488 55.4
111.729 55.2
111.974 55
112.226 54.8
112.484 54.6
112.716 54.4
112.954 54.2
113.217 54
113.480 53.8
113.736 53.6
114.004 53.4
114.265 53.2
114.523 53
114.785 52.8
115.049 52.6
115.322 52.4
115.580 52.2
115.836 52
116.123 51.8
116.397 51.6
116.671 51.4
116.944 51.2
117.235 51
117.496 50.8
117.776 50.6
118.072 50.4
118.354 50.2
118.630 50
118.908 49.8
119.201 49.6
119.491 49.4
119.769 49.2
120.064 49
120.362 48.8
120.662 48.6
120.967 48.4
121.269 48.2
121.571 48
121.883 47.8
122.192 47.6
122.489 47.4
122.757 47.2
123.078 47
123.409 46.8
123.712 46.6
124.042 46.4
124.366 46.2
124.686 46
125.012 45.8
125.351 45.6
125.683 45.4
126.008 45.2
126.332 45
126.660 44.8
126.996 44.6
127.338 44.4
127.680 44.2
128.025 44
128.369 43.8
128.707 43.6
129.062 43.4
129.451 43.2
129.809 43
130.129 42.8
130.479 42.6
130.847 42.4
131.202 42.2
131.563 42
131.940 41.8
132.299 41.6
132.627 41.4
133.012 41.2
133.432 41
133.809 40.8
134.193 40.6
134.580 40.4
134.978 40.2
135.296 40
135.710 39.8
136.158 39.6
136.573 39.4
136.968 39.2
137.348 39
137.766 38.8
138.186 38.6
138.652 38.4
139.079 38.2
139.453 38
139.876 37.8
140.283 37.6
140.710 37.4
141.129 37.2
141.569 37
142.041 36.8
142.506 36.6
142.948 36.4
143.414 36.2
143.871 36
144.314 35.8
144.776 35.6
145.215 35.4
145.681 35.2
146.144 35
146.634 34.8
147.121 34.6
147.599 34.4
148.080 34.2
148.577 34
149.067 33.8
149.562 33.6
150.058 33.4
150.584 33.2
151.083 33
151.589 32.8
152.130 32.6
152.663 32.4
153.192 32.2
153.725 32
154.265 31.8
154.811 31.6
155.381 31.4
155.927 31.2
156.485 31
157.055 30.8
157.610 30.6
158.177 30.4
158.762 30.2
159.341 30
159.642 29.9
159.930 29.8
160.223 29.7
160.527 29.6
160.832 29.5
161.142 29.4
161.444 29.3
161.734 29.2
162.024 29.1
162.332 29
162.652 28.9
162.963 28.8
163.296 28.7
163.606 28.6
163.915 28.5
164.235 28.4
164.544 28.3
164.835 28.2
165.152 28.1
165.507 28
165.819 27.9
166.164 27.8
166.493 27.7
166.796 27.6
167.129 27.5
167.464 27.4
167.788 27.3
168.122 27.2
168.466 27.1
168.817 27
169.154 26.9
169.474 26.8
169.817 26.7
170.180 26.6
170.526 26.5
170.879 26.4
171.215 26.3
171.581 26.2
171.996 26.1
172.391 26
172.756 25.9
173.107 25.8
173.436 25.7
173.804 25.6
174.147 25.5
174.507 25.4
174.913 25.3
175.299 25.2
175.648 25.1
176.055 25
176.450 24.9
176.836 24.8
177.210 24.7
177.581 24.6
177.976 24.5
178.357 24.4
178.759 24.3
179.160 24.2
179.542 24.1
179.927 24
180.315 23.9
180.734 23.8
181.150 23.7
181.559 23.6
181.949 23.5
182.358 23.4
182.794 23.3
183.227 23.2
183.656 23.1
184.050 23
184.472 22.9
184.901 22.8
185.320 22.7
185.760 22.6
186.193 22.5
186.638 22.4
187.040 22.3
187.471 22.2
187.959 22.1
188.433 22
188.877 21.9
189.305 21.8
189.754 21.7
190.248 21.6
190.722 21.5
191.167 21.4
191.638 21.3
192.118 21.2
192.624 21.1
193.114 21
193.560 20.9
194.015 20.8
194.481 20.7
195.024 20.6
195.530 20.5
196.058 20.4
196.534 20.3
196.999 20.2
197.525 20.1
198.044 20
198.547 19.9
199.055 19.8
199.581 19.7
200.135 19.6
200.687 19.5
201.212 19.4
201.735 19.3
202.255 19.2
202.798 19.1
203.349 19
203.898 18.9
204.496 18.8
205.108 18.7
205.683 18.6
206.256 18.5
206.848 18.4
207.439 18.3
208.031 18.2
208.650 18.1
209.252 18
209.853 17.9
210.454 17.8
211.050 17.7
211.653 17.6
212.314 17.5
212.976 17.4
213.638 17.3
214.141 17.2
214.780 17.1
215.451 17
216.121 16.9
216.792 16.8
217.483 16.7
218.202 16.6
218.920 16.5
219.638 16.4
220.324 16.3
220.907 16.2
221.654 16.1
222.400 16
223.147 15.9
223.833 15.8
224.558 15.7
225.338 15.6
226.118 15.5
226.850 15.4
227.568 15.3
228.396 15.2
229.224 15.1
229.948 15
230.666 14.9
231.545 14.8
232.423 14.7
233.101 14.6
233.991 14.5
234.924 14.4
235.621 14.3
236.442 14.2
237.314 14.1
238.361 14
239.135 13.9
239.974 13.8
240.944 13.7
241.837 13.6
242.728 13.5
243.774 13.4
244.701 13.3
245.690 13.2
246.703 13.1
247.672 13
248.689 12.9
249.691 12.8
250.674 12.7
251.745 12.6
252.886 12.5
253.952 12.4
254.921 12.3
255.983 12.2
257.094 12.1
258.375 12
259.489 11.9
260.465 11.8
261.652 11.7
262.887 11.6
264.219 11.5
265.474 11.4
266.693 11.3
267.893 11.2
269.036 11.1
270.406 11
271.737 10.9
273.161 10.8
274.475 10.7
275.776 10.6
277.189 10.5
278.562 10.4
280.036 10.3
281.472 10.2
282.963 10.1
284.525 10
286.071 9.9
287.616 9.8
289.331 9.7
290.934 9.6
292.529 9.5
294.234 9.4
295.896 9.3
297.608 9.2
299.381 9.1
301.164 9
303.158 8.9
305.221 8.8
306.921 8.7
309.053 8.6
311.093 8.5
313.099 8.4
315.316 8.3
317.320 8.2
319.526 8.1
321.603 8
322.036 7.98
322.858 7.96
323.660 7.94
324.101 7.92
324.290 7.9
324.617 7.88
325.220 7.86
325.693 7.84
326.007 7.82
326.255 7.8
326.707 7.78
327.573 7.76
328.079 7.74
328.132 7.72
328.563 7.7
329.133 7.68
329.737 7.66
330.499 7.64
331.120 7.62
331.555 7.6
331.993 7.58
332.681 7.56
333.091 7.54
333.399 7.52
333.999 7.5
334.453 7.48
334.966 7.46
335.502 7.44
335.712 7.42
336.295 7.4
337.130 7.38
337.407 7.36
337.921 7.34
338.536 7.32
339.230 7.3
340.224 7.28
340.574 7.26
340.594 7.24
341.040 7.22
341.672 7.2
342.616 7.18
343.403 7.16
343.721 7.14
344.091 7.12
344.690 7.1
345.234 7.08
345.735 7.06
346.358 7.04
347.038 7.02
347.517 7
347.841 6.98
348.493 6.96
349.268 6.94
350.153 6.92
351.351 6.9
352.033 6.88
352.274 6.86
352.582 6.84
353.007 6.82
353.514 6.8
354.037 6.78
354.556 6.76
355.311 6.74
356.155 6.72
356.683 6.7
356.994 6.68
357.537 6.66
358.456 6.64
359.452 6.62
360.033 6.6
360.533 6.58
361.321 6.56
362.074 6.54
362.106 6.52
362.432 6.5
363.680 6.48
364.414 6.46
364.794 6.44
365.725 6.42
366.595 6.4
367.115 6.38
367.748 6.36
368.390 6.34
369.056 6.32
369.817 6.3
370.534 6.28
370.716 6.26
371.452 6.24
372.930 6.22
373.794 6.2
374.384 6.18
374.783 6.16
375.506 6.14
376.355 6.12
377.058 6.1
377.790 6.08
378.352 6.06
379.305 6.04
380.231 6.02
380.732 6
381.600 5.98
382.588 5.96
383.227 5.94
383.938 5.92
384.946 5.9
385.807 5.88
386.590 5.86
387.470 5.84
388.424 5.82
389.172 5.8
389.795 5.78
390.683 5.76
391.456 5.74
392.317 5.72
393.276 5.7
394.135 5.68
395.226 5.66
396.042 5.64
396.662 5.62
397.583 5.6
398.563 5.58
399.520 5.56
400.329 5.54
401.328 5.52
402.329 5.5
402.968 5.48
403.848 5.46
404.984 5.44
405.812 5.42
406.667 5.4
407.536 5.38
408.415 5.36
409.571 5.34
410.665 5.32
411.642 5.3
412.624 5.28
413.526 5.26
414.481 5.24
415.425 5.22
416.410 5.2
417.519 5.18
418.626 5.16
419.684 5.14
420.675 5.12
421.759 5.1
422.952 5.08
423.980 5.06
424.951 5.04
425.991 5.02
427.075 5
428.258 4.98
429.406 4.96
430.509 4.94
431.644 4.92
432.787 4.9
433.943 4.88
435.117 4.86
436.287 4.84
437.466 4.82
438.676 4.8
439.843 4.78
441.111 4.76
442.381 4.74
443.531 4.72
444.747 4.7
446.009 4.68
447.267 4.66
448.553 4.64
449.846 4.62
451.164 4.6
452.454 4.58
453.753 4.56
455.078 4.54
456.387 4.52
457.752 4.5
459.163 4.48
460.520 4.46
461.866 4.44
463.272 4.42
464.702 4.4
466.134 4.38
467.564 4.36
469.021 4.34
470.497 4.32
471.967 4.3
473.439 4.28
474.958 4.26
476.502 4.24
478.020 4.22
479.559 4.2
481.166 4.18
482.737 4.16
484.315 4.14
485.944 4.12
487.590 4.1
489.241 4.08
490.881 4.06
492.556 4.04
494.268 4.02
496.011 4
497.749 3.98
499.486 3.96
501.226 3.94
503.097 3.92
504.932 3.9
506.749 3.88
508.703 3.86
510.579 3.84
512.593 3.82
514.656 3.8
516.508 3.78
517.603 3.76
518.171 3.74
520.337 3.72
523.300 3.7
525.641 3.68
527.991 3.66
530.160 3.64
532.242 3.62
534.374 3.6
536.538 3.58
538.817 3.56
541.007 3.54
543.218 3.52
545.566 3.5
547.900 3.48
550.320 3.46
552.649 3.44
554.897 3.42
557.316 3.4
559.800 3.38
562.340 3.36
564.909 3.34
567.380 3.32
569.987 3.3
572.517 3.28
575.066 3.26
577.857 3.24
580.628 3.22
583.380 3.2
586.149 3.18
588.973 3.16
591.803 3.14
594.710 3.12
597.592 3.1
600.500 3.08
603.478 3.06
606.483 3.04
609.589 3.02
612.704 3
615.819 2.98
619.165 2.96
622.686 2.94
625.929 2.92
629.349 2.9
632.845 2.88
636.174 2.86
639.707 2.84
643.359 2.82
647.134 2.8
650.763 2.78
654.336 2.76
658.094 2.74
662.024 2.72
666.249 2.7
670.414 2.68
674.341 2.66
678.399 2.64
682.651 2.62
687.030 2.6
691.539 2.58
695.916 2.56
700.509 2.54
705.396 2.52
710.382 2.5
715.141 2.48
719.319 2.46
724.039 2.44
729.745 2.42
735.138 2.4
740.117 2.38
745.073 2.36
750.371 2.34
756.291 2.32
762.016 2.3
767.637 2.28
773.553 2.26
779.567 2.24
785.725 2.22
792.265 2.2
798.811 2.18
805.746 2.16
812.189 2.14
818.401 2.12
826.147 2.1
832.870 2.08
839.668 2.06
848.121 2.04
855.663 2.02
862.975 2
866.931 1.99
871.097 1.98
875.256 1.97
879.377 1.96
883.581 1.95
887.904 1.94
892.189 1.93
896.713 1.92
901.296 1.91
905.762 1.9
910.119 1.89
914.613 1.88
919.256 1.87
923.924 1.86
928.653 1.85
933.371 1.84
938.128 1.83
942.968 1.82
947.981 1.81
952.957 1.8
957.901 1.79
963.091 1.78
968.564 1.77
974.122 1.76
979.538 1.75
985.001 1.74
990.496 1.73
996.058 1.72
1001.759 1.71
1007.610 1.7
1013.551 1.69
1019.596 1.68
1025.823 1.67
1032.123 1.66
1038.399 1.65
1044.742 1.64
1051.289 1.63
1057.774 1.62
1064.288 1.61
1070.996 1.6
1078.003 1.59
1085.183 1.58
1092.437 1.57
1099.750 1.56
1106.849 1.55
1113.968 1.54
1121.290 1.53
1128.711 1.52
1136.425 1.51
1144.459 1.5
1152.836 1.49
1161.402 1.48
1169.981 1.47
1178.401 1.46
1187.000 1.45
1195.933 1.44
1204.836 1.43
1214.043 1.42
1223.437 1.41
1232.865 1.4
1242.534 1.39
1252.666 1.38
1262.354 1.37
1271.914 1.36
1282.220 1.35
1293.018 1.34
1304.333 1.33
1316.153 1.32
1328.165 1.31
1339.556 1.3
1350.942 1.29
1362.561 1.28
1374.770 1.27
1387.883 1.26
1401.451 1.25
1414.850 1.24
1427.965 1.23
1441.803 1.22
1455.845 1.21
1470.113 1.2
1484.512 1.19
1498.912 1.18
1514.149 1.17
1530.336 1.16
1547.599 1.15
1564.853 1.14
1581.953 1.13
1599.088 1.12
1616.313 1.11
1634.420 1.1
1653.078 1.09
1672.034 1.08
1691.680 1.07
1712.420 1.06
1734.091 1.05
1755.626 1.04
1777.725 1.03
1799.920 1.02
1822.002 1.01
1844.323 1
1867.858 0.99
1892.679 0.98
1918.416 0.97
1946.269 0.96
1974.449 0.95
2003.202 0.94
2032.893 0.93
2064.203 0.92
2096.176 0.91
2128.863 0.9
2162.261 0.89
2196.165 0.88
2231.852 0.87
2268.921 0.86
2306.754 0.85
2345.651 0.84
2387.047 0.83
2429.870 0.82
2474.125 0.81
2520.042 0.8
2524.646 0.799
2529.266 0.798
2533.907 0.797
2538.566 0.796
2543.244 0.795
2547.956 0.794
2552.717 0.793
2557.450 0.792
2562.162 0.791
2566.902 0.79
2571.683 0.789
2576.501 0.788
2581.351 0.787
2586.137 0.786
2590.967 0.785
2595.838 0.784
2600.749 0.783
2605.680 0.782
2610.636 0.781
2615.622 0.78
2620.639 0.779
2625.681 0.778
2630.719 0.777
2635.775 0.776
2640.900 0.775
2646.085 0.774
2651.330 0.773
2656.612 0.772
2661.878 0.771
2667.139 0.77
2672.446 0.769
2677.800 0.768
2683.150 0.767
2688.504 0.766
2693.874 0.765
2699.296 0.764
2704.789 0.763
2710.283 0.762
2715.779 0.761
2721.280 0.76
2726.786 0.759
2732.298 0.758
2737.832 0.757
2743.388 0.756
2748.958 0.755
2754.509 0.754
2760.125 0.753
2765.792 0.752
2771.484 0.751
2777.206 0.75
2782.959 0.749
2788.746 0.748
2794.481 0.747
2800.245 0.746
2806.064 0.745
2811.938 0.744
2817.859 0.743
2823.773 0.742
2829.659 0.741
2835.554 0.74
2841.486 0.739
2847.435 0.738
2853.403 0.737
2859.389 0.736
2865.465 0.735
2871.573 0.734
2877.662 0.733
2883.791 0.732
2889.926 0.731
2896.050 0.73
2902.247 0.729
2908.472 0.728
2914.719 0.727
2920.993 0.726
2927.320 0.725
2933.665 0.724
2940.034 0.723
2946.325 0.722
2952.527 0.721
2958.691 0.72
2965.082 0.719
2971.815 0.718
2978.559 0.717
2985.302 0.716
2992.040 0.715
2998.769 0.714
3005.521 0.713
3012.331 0.712
3019.180 0.711
3025.996 0.71
3032.808 0.709
3039.667 0.708
3046.541 0.707
3053.446 0.706
3060.282 0.705
3067.184 0.704
3074.149 0.703
3081.139 0.702
3088.132 0.701
3095.085 0.7
3102.075 0.699
3109.131 0.698
3116.184 0.697
3123.264 0.696
3130.394 0.695
3137.564 0.694
3144.751 0.693
3151.924 0.692
3159.164 0.691
3166.487 0.69
3173.838 0.689
3181.191 0.688
3188.546 0.687
3195.908 0.686
3203.398 0.685
3210.932 0.684
3218.505 0.683
3226.117 0.682
3233.784 0.681
3241.505 0.68
3249.272 0.679
3257.083 0.678
3264.930 0.677
3272.865 0.676
3280.916 0.675
3288.993 0.674
3297.089 0.673
3305.163 0.672
3313.274 0.671
3321.518 0.67
3329.796 0.669
3338.067 0.668
3346.352 0.667
3354.699 0.666
3363.066 0.665
3371.217 0.664
3379.462 0.663
3388.187 0.662
3396.908 0.661
3405.635 0.66
3414.377 0.659
3423.266 0.658
3432.184 0.657
3441.117 0.656
3450.046 0.655
3458.987 0.654
3468.016 0.653
3477.054 0.652
3486.102 0.651
3495.180 0.65
3504.295 0.649
3513.449 0.648
3522.632 0.647
3531.845 0.646
3541.089 0.645
3550.351 0.644
3559.627 0.643
3568.921 0.642
3578.252 0.641
3587.621 0.64
3597.044 0.639
3606.521 0.638
3616.040 0.637
3625.600 0.636
3635.215 0.635
3644.801 0.634
3654.413 0.633
3664.108 0.632
3673.842 0.631
3683.609 0.63
3693.421 0.629
3703.274 0.628
3713.168 0.627
3723.104 0.626
3733.077 0.625
3743.077 0.624
3753.113 0.623
3763.195 0.622
3773.405 0.621
3783.829 0.62
3794.149 0.619
3802.690 0.618
3811.463 0.617
3821.475 0.616
3832.507 0.615
3844.357 0.614
3856.842 0.613
3869.769 0.612
3882.693 0.611
3895.354 0.61
3907.859 0.609
3920.200 0.608
3932.350 0.607
3944.323 0.606
3956.157 0.605
3967.861 0.604
3979.421 0.603
3990.868 0.602
4002.243 0.601
4013.552 0.6
4024.774 0.599
4035.945 0.598
4047.075 0.597
4058.221 0.596
4069.350 0.595
4080.449 0.594
4091.590 0.593
4102.763 0.592
4113.946 0.591
4125.156 0.59
4136.402 0.589
4147.706 0.588
4159.075 0.587
4170.538 0.586
4182.107 0.585
4193.806 0.584
4205.567 0.583
4217.456 0.582
4229.460 0.581
4241.545 0.58
4253.793 0.579
4266.193 0.578
4278.698 0.577
4291.322 0.576
4304.111 0.575
4317.014 0.574
4330.073 0.573
4343.271 0.572
4356.656 0.571
4370.198 0.57
4383.833 0.569
4397.655 0.568
4411.652 0.567
4425.805 0.566
4440.110 0.565
4454.631 0.564
4469.732 0.563
4485.141 0.562
4500.309 0.561
4515.669 0.56
4531.248 0.559
4547.086 0.558
4562.999 0.557
4579.058 0.556
4595.308 0.555
4611.828 0.554
4628.567 0.553
4645.418 0.552
4662.379 0.551
4679.455 0.55
4696.824 0.549
4714.361 0.548
4731.777 0.547
4749.333 0.546
4767.164 0.545
4785.208 0.544
4803.033 0.543
4820.900 0.542
4838.829 0.541
4856.914 0.54
4875.038 0.539
4893.233 0.538
4911.518 0.537
4929.930 0.536
4948.383 0.535
4966.740 0.534
4985.182 0.533
5003.668 0.532
5021.833 0.531
5039.673 0.53
5058.044 0.529
5076.794 0.528
5095.277 0.527
5113.279 0.526
5131.118 0.525
5149.039 0.524
5166.863 0.523
5183.846 0.522
5200.825 0.521
5218.512 0.52
5236.081 0.519
5253.851 0.518
5272.783 0.517
5293.793 0.516
5315.330 0.515
5336.955 0.514
5358.490 0.513
5378.892 0.512
5396.610 0.511
5417.076 0.51
5438.560 0.509
5460.276 0.508
5483.548 0.507
5505.130 0.506
5524.118 0.505
5544.256 0.504
5566.114 0.503
5588.593 0.502
5610.854 0.501
5632.614 0.5
5654.511 0.499
5676.572 0.498
5698.456 0.497
5720.518 0.496
5742.549 0.495
5764.482 0.494
5787.117 0.493
5809.453 0.492
5832.280 0.491
5855.535 0.49
5878.179 0.489
5900.762 0.488
5922.944 0.487
5945.236 0.486
5967.152 0.485
5990.622 0.484
6014.747 0.483
6039.050 0.482
6064.793 0.481
6090.051 0.48
6115.680 0.479
6141.089 0.478
6166.810 0.477
6191.969 0.476
6217.257 0.475
6243.428 0.474
6270.982 0.473
6298.363 0.472
6325.745 0.471
6352.413 0.47
6379.329 0.469
6406.396 0.468
6433.422 0.467
6461.575 0.466
6490.541 0.465
6519.941 0.464
6548.879 0.463
6577.310 0.462
6605.230 0.461
6633.823 0.46
6663.445 0.459
6693.358 0.458
6723.539 0.457
6753.962 0.456
6784.147 0.455
6814.910 0.454
6846.820 0.453
6878.945 0.452
6911.102 0.451
6943.406 0.45
6976.395 0.449
7009.882 0.448
7043.632 0.447
7078.029 0.446
7112.840 0.445
7147.689 0.444
7182.501 0.443
7218.044 0.442
7253.999 0.441
7290.515 0.44
7327.408 0.439
7364.728 0.438
7402.527 0.437
7440.805 0.436
7479.573 0.435
7518.538 0.434
7557.959 0.433
7597.815 0.432
7637.968 0.431
7678.856 0.43
7720.837 0.429
7762.777 0.428
7804.551 0.427
7846.686 0.426
7889.543 0.425
7933.029 0.424
7976.731 0.423
8020.683 0.422
8065.867 0.421
8111.548 0.42
8156.948 0.419
8202.710 0.418
8248.700 0.417
8296.613 0.416
8344.193 0.415
8391.671 0.414
8439.315 0.413
8486.996 0.412
8535.907 0.411
8588.556 0.41
8639.959 0.409
8691.213 0.408
8742.570 0.407
8792.018 0.406
8842.841 0.405
8897.301 0.404
8952.167 0.403
9006.222 0.402
9060.171 0.401
9114.455 0.4
9169.558 0.399
9225.214 0.398
9281.145 0.397
9337.707 0.396
9394.509 0.395
9451.677 0.394
9509.299 0.393
9566.917 0.392
9625.664 0.391
9684.302 0.39
9742.731 0.389
9801.995 0.388
9861.933 0.387
9923.306 0.386
9985.653 0.385
10050.173 0.384
10114.861 0.383
10179.854 0.382
10245.669 0.381
10310.431 0.38
10376.747 0.379
10443.587 0.378
10511.045 0.377
10579.435 0.376
10650.045 0.375
10722.163 0.374
10794.602 0.373
10867.022 0.372
10939.604 0.371
11011.802 0.37
11085.551 0.369
11161.168 0.368
11237.821 0.367
11315.513 0.366
11393.715 0.365
11471.845 0.364
11550.390 0.363
11630.349 0.362
11711.970 0.361
11795.755 0.36
11880.457 0.359
11965.663 0.358
12051.857 0.357
12139.060 0.356
12227.784 0.355
12318.553 0.354
12410.452 0.353
12502.896 0.352
12596.725 0.351
12692.108 0.35
12789.341 0.349
12887.790 0.348
12986.984 0.347
13087.478 0.346
13189.344 0.345
13292.533 0.344
13397.232 0.343
13503.584 0.342
13611.117 0.341
13719.969 0.34
13830.286 0.339
13942.135 0.338
14055.526 0.337
14170.614 0.336
14287.428 0.335
14405.631 0.334
14525.677 0.333
14647.179 0.332
14769.718 0.331
14894.167 0.33
15020.697 0.329
15148.707 0.328
15278.242 0.327
15409.832 0.326
15543.504 0.325
15678.779 0.324
15815.577 0.323
15954.441 0.322
16095.821 0.321
16239.207 0.32
16384.345 0.319
16531.336 0.318
16680.718 0.317
16832.299 0.316
16985.148 0.315
17140.346 0.314
17297.879 0.313
17457.493 0.312
17619.322 0.311
17783.322 0.31
17950.012 0.309
18119.268 0.308
18291.056 0.307
18465.604 0.306
18642.677 0.305
18822.197 0.304
19004.376 0.303
19189.336 0.302
19377.282 0.301
19568.193 0.3
19762.134 0.299
19959.273 0.298
20159.109 0.297
20361.893 0.296
20568.256 0.295
20778.105 0.294
20991.859 0.293
21209.646 0.292
21431.671 0.291
21657.703 0.29
21887.103 0.289
22120.107 0.288
22353.626 0.287
22591.863 0.286
22834.747 0.285
23082.648 0.284
23335.292 0.283
23592.723 0.282
23855.387 0.281
24123.472 0.28
24397.544 0.279
24676.907 0.278
24961.902 0.277
25253.229 0.276
25550.270 0.275
25852.724 0.274
26160.833 0.273
26474.975 0.272
26794.440 0.271
27120.313 0.27
27453.559 0.269
27793.695 0.268
28139.654 0.267
28492.323 0.266
28852.325 0.265
29219.145 0.264
29593.426 0.263
29974.945 0.262
30363.671 0.261
30759.727 0.26
31163.124 0.259
31574.273 0.258
31993.187 0.257
32420.108 0.256
32855.229 0.255
33298.233 0.254
33749.388 0.253
34209.131 0.252
34677.337 0.251
35153.967 0.25
35639.314 0.249
36133.263 0.248
36636.046 0.247
37148.210 0.246
37669.660 0.245
38200.361 0.244
38740.451 0.243
39290.054 0.242
39849.274 0.241
40418.506 0.24
40998.041 0.239
41587.830 0.238
42188.057 0.237
42799.027 0.236
43420.716 0.235
44053.148 0.234
44696.641 0.233
45351.199 0.232
46017.413 0.231
46695.987 0.23
47386.536 0.229
48089.019 0.228
48804.011 0.227
49532.038 0.226
50272.887 0.225
51027.137 0.224
51794.934 0.223
52576.543 0.222
53372.231 0.221
54182.271 0.22
55006.944 0.219
55846.533 0.218
56701.327 0.217
57571.621 0.216
58457.715 0.215
59359.914 0.214
60278.529 0.213
61213.874 0.212
62166.271 0.211
63136.045 0.21
64123.528 0.209
65129.057 0.208
66152.972 0.207
67195.621 0.206
68257.357 0.205
69338.535 0.204
70439.519 0.203
71560.677 0.202
72702.382 0.201
73865.012 0.2
75048.951 0.199
76254.586 0.198
77482.313 0.197
78732.531 0.196
80005.643 0.195
81302.060 0.194
82622.196 0.193
83966.472 0.192
85335.313 0.191
86729.149 0.19
88148.417 0.189
89593.556 0.188
91065.015 0.187
92563.243 0.186
94088.698 0.185
95641.842 0.184
97223.141 0.183
98833.069 0.182
100472.103 0.181
102140.725 0.18
103839.425 0.179
105568.694 0.178
107329.032 0.177
109120.943 0.176
110944.935 0.175
